Created as New Dataset,Sample 030 By Analyst Date Wednesday, April 02 2025
cm-1,A
4000.00,-0.0639
3998.00,-0.0639
3996.00,-0.0639
3994.00,-0.0638
3992.00,-0.0638
3990.00,-0.0638
3988.00,-0.0638
3986.00,-0.0637
3984.00,-0.0637
3982.00,-0.0638
3980.00,-0.0638
3978.00,-0.0638
3976.00,-0.0638
3974.00,-0.0638
3972.00,-0.0638
3970.00,-0.0638
3968.00,-0.0639
3966.00,-0.0639
3964.00,-0.0639
3962.00,-0.0638
3960.00,-0.0638
3958.00,-0.0638
3956.00,-0.0638
3954.00,-0.0638
3952.00,-0.0638
3950.00,-0.0638
3948.00,-0.0638
3946.00,-0.0638
3944.00,-0.0638
3942.00,-0.0639
3940.00,-0.0639
3938.00,-0.0639
3936.00,-0.0639
3934.00,-0.0639
3932.00,-0.0639
3930.00,-0.0639
3928.00,-0.0638
3926.00,-0.0638
3924.00,-0.0637
3922.00,-0.0638
3920.00,-0.0638
3918.00,-0.0637
3916.00,-0.0637
3914.00,-0.0637
3912.00,-0.0637
3910.00,-0.0637
3908.00,-0.0638
3906.00,-0.0638
3904.00,-0.0638
3902.00,-0.0638
3900.00,-0.0637
3898.00,-0.0637
3896.00,-0.0637
3894.00,-0.0636
3892.00,-0.0636
3890.00,-0.0637
3888.00,-0.0638
3886.00,-0.0636
3884.00,-0.0637
3882.00,-0.0637
3880.00,-0.0636
3878.00,-0.0638
3876.00,-0.0638
3874.00,-0.0638
3872.00,-0.0639
3870.00,-0.0638
3868.00,-0.0639
3866.00,-0.0638
3864.00,-0.0637
3862.00,-0.0637
3860.00,-0.0637
3858.00,-0.0639
3856.00,-0.0641
3854.00,-0.0639
3852.00,-0.0639
3850.00,-0.0640
3848.00,-0.0637
3846.00,-0.0638
3844.00,-0.0638
3842.00,-0.0640
3840.00,-0.0640
3838.00,-0.0639
3836.00,-0.0639
3834.00,-0.0638
3832.00,-0.0637
3830.00,-0.0637
3828.00,-0.0636
3826.00,-0.0637
3824.00,-0.0638
3822.00,-0.0637
3820.00,-0.0638
3818.00,-0.0639
3816.00,-0.0636
3814.00,-0.0637
3812.00,-0.0637
3810.00,-0.0637
3808.00,-0.0637
3806.00,-0.0637
3804.00,-0.0638
3802.00,-0.0636
3800.00,-0.0636
3798.00,-0.0636
3796.00,-0.0635
3794.00,-0.0635
3792.00,-0.0635
3790.00,-0.0635
3788.00,-0.0636
3786.00,-0.0636
3784.00,-0.0636
3782.00,-0.0637
3780.00,-0.0636
3778.00,-0.0637
3776.00,-0.0637
3774.00,-0.0637
3772.00,-0.0637
3770.00,-0.0636
3768.00,-0.0637
3766.00,-0.0636
3764.00,-0.0636
3762.00,-0.0637
3760.00,-0.0636
3758.00,-0.0637
3756.00,-0.0639
3754.00,-0.0640
3752.00,-0.0640
3750.00,-0.0639
3748.00,-0.0641
3746.00,-0.0639
3744.00,-0.0636
3742.00,-0.0638
3740.00,-0.0637
3738.00,-0.0636
3736.00,-0.0636
3734.00,-0.0637
3732.00,-0.0636
3730.00,-0.0636
3728.00,-0.0634
3726.00,-0.0634
3724.00,-0.0635
3722.00,-0.0635
3720.00,-0.0635
3718.00,-0.0635
3716.00,-0.0635
3714.00,-0.0635
3712.00,-0.0633
3710.00,-0.0633
3708.00,-0.0633
3706.00,-0.0633
3704.00,-0.0632
3702.00,-0.0632
3700.00,-0.0632
3698.00,-0.0631
3696.00,-0.0630
3694.00,-0.0631
3692.00,-0.0632
3690.00,-0.0632
3688.00,-0.0632
3686.00,-0.0632
3684.00,-0.0630
3682.00,-0.0630
3680.00,-0.0631
3678.00,-0.0632
3676.00,-0.0629
3674.00,-0.0631
3672.00,-0.0631
3670.00,-0.0628
3668.00,-0.0629
3666.00,-0.0629
3664.00,-0.0628
3662.00,-0.0629
3660.00,-0.0630
3658.00,-0.0631
3656.00,-0.0631
3654.00,-0.0633
3652.00,-0.0634
3650.00,-0.0633
3648.00,-0.0633
3646.00,-0.0633
3644.00,-0.0632
3642.00,-0.0631
3640.00,-0.0632
3638.00,-0.0632
3636.00,-0.0633
3634.00,-0.0633
3632.00,-0.0635
3630.00,-0.0635
3628.00,-0.0634
3626.00,-0.0636
3624.00,-0.0635
3622.00,-0.0637
3620.00,-0.0637
3618.00,-0.0637
3616.00,-0.0637
3614.00,-0.0635
3612.00,-0.0635
3610.00,-0.0635
3608.00,-0.0634
3606.00,-0.0635
3604.00,-0.0636
3602.00,-0.0636
3600.00,-0.0636
3598.00,-0.0637
3596.00,-0.0637
3594.00,-0.0637
3592.00,-0.0638
3590.00,-0.0638
3588.00,-0.0637
3586.00,-0.0637
3584.00,-0.0637
3582.00,-0.0637
3580.00,-0.0636
3578.00,-0.0636
3576.00,-0.0636
3574.00,-0.0637
3572.00,-0.0637
3570.00,-0.0638
3568.00,-0.0637
3566.00,-0.0637
3564.00,-0.0638
3562.00,-0.0638
3560.00,-0.0638
3558.00,-0.0638
3556.00,-0.0638
3554.00,-0.0638
3552.00,-0.0637
3550.00,-0.0637
3548.00,-0.0637
3546.00,-0.0636
3544.00,-0.0636
3542.00,-0.0636
3540.00,-0.0636
3538.00,-0.0636
3536.00,-0.0636
3534.00,-0.0637
3532.00,-0.0637
3530.00,-0.0637
3528.00,-0.0637
3526.00,-0.0637
3524.00,-0.0637
3522.00,-0.0637
3520.00,-0.0637
3518.00,-0.0637
3516.00,-0.0636
3514.00,-0.0636
3512.00,-0.0637
3510.00,-0.0637
3508.00,-0.0637
3506.00,-0.0637
3504.00,-0.0637
3502.00,-0.0638
3500.00,-0.0638
3498.00,-0.0638
3496.00,-0.0638
3494.00,-0.0638
3492.00,-0.0638
3490.00,-0.0638
3488.00,-0.0638
3486.00,-0.0638
3484.00,-0.0637
3482.00,-0.0637
3480.00,-0.0638
3478.00,-0.0638
3476.00,-0.0638
3474.00,-0.0638
3472.00,-0.0639
3470.00,-0.0639
3468.00,-0.0639
3466.00,-0.0639
3464.00,-0.0639
3462.00,-0.0639
3460.00,-0.0639
3458.00,-0.0638
3456.00,-0.0638
3454.00,-0.0638
3452.00,-0.0638
3450.00,-0.0637
3448.00,-0.0637
3446.00,-0.0637
3444.00,-0.0638
3442.00,-0.0638
3440.00,-0.0638
3438.00,-0.0638
3436.00,-0.0638
3434.00,-0.0638
3432.00,-0.0638
3430.00,-0.0638
3428.00,-0.0638
3426.00,-0.0638
3424.00,-0.0638
3422.00,-0.0637
3420.00,-0.0637
3418.00,-0.0637
3416.00,-0.0637
3414.00,-0.0637
3412.00,-0.0638
3410.00,-0.0638
3408.00,-0.0638
3406.00,-0.0638
3404.00,-0.0638
3402.00,-0.0638
3400.00,-0.0638
3398.00,-0.0638
3396.00,-0.0638
3394.00,-0.0637
3392.00,-0.0637
3390.00,-0.0637
3388.00,-0.0637
3386.00,-0.0637
3384.00,-0.0637
3382.00,-0.0637
3380.00,-0.0638
3378.00,-0.0638
3376.00,-0.0638
3374.00,-0.0638
3372.00,-0.0638
3370.00,-0.0638
3368.00,-0.0637
3366.00,-0.0637
3364.00,-0.0637
3362.00,-0.0636
3360.00,-0.0636
3358.00,-0.0636
3356.00,-0.0635
3354.00,-0.0636
3352.00,-0.0636
3350.00,-0.0636
3348.00,-0.0636
3346.00,-0.0636
3344.00,-0.0636
3342.00,-0.0636
3340.00,-0.0637
3338.00,-0.0637
3336.00,-0.0637
3334.00,-0.0637
3332.00,-0.0636
3330.00,-0.0636
3328.00,-0.0636
3326.00,-0.0636
3324.00,-0.0636
3322.00,-0.0637
3320.00,-0.0637
3318.00,-0.0637
3316.00,-0.0638
3314.00,-0.0638
3312.00,-0.0638
3310.00,-0.0638
3308.00,-0.0638
3306.00,-0.0639
3304.00,-0.0639
3302.00,-0.0638
3300.00,-0.0638
3298.00,-0.0638
3296.00,-0.0638
3294.00,-0.0638
3292.00,-0.0638
3290.00,-0.0638
3288.00,-0.0638
3286.00,-0.0638
3284.00,-0.0638
3282.00,-0.0638
3280.00,-0.0638
3278.00,-0.0638
3276.00,-0.0638
3274.00,-0.0637
3272.00,-0.0637
3270.00,-0.0636
3268.00,-0.0636
3266.00,-0.0636
3264.00,-0.0635
3262.00,-0.0635
3260.00,-0.0635
3258.00,-0.0635
3256.00,-0.0636
3254.00,-0.0636
3252.00,-0.0636
3250.00,-0.0636
3248.00,-0.0636
3246.00,-0.0636
3244.00,-0.0636
3242.00,-0.0636
3240.00,-0.0636
3238.00,-0.0636
3236.00,-0.0636
3234.00,-0.0636
3232.00,-0.0636
3230.00,-0.0636
3228.00,-0.0636
3226.00,-0.0636
3224.00,-0.0637
3222.00,-0.0637
3220.00,-0.0637
3218.00,-0.0638
3216.00,-0.0638
3214.00,-0.0638
3212.00,-0.0638
3210.00,-0.0638
3208.00,-0.0637
3206.00,-0.0637
3204.00,-0.0637
3202.00,-0.0637
3200.00,-0.0637
3198.00,-0.0637
3196.00,-0.0637
3194.00,-0.0638
3192.00,-0.0638
3190.00,-0.0638
3188.00,-0.0638
3186.00,-0.0638
3184.00,-0.0638
3182.00,-0.0638
3180.00,-0.0637
3178.00,-0.0637
3176.00,-0.0637
3174.00,-0.0636
3172.00,-0.0636
3170.00,-0.0636
3168.00,-0.0636
3166.00,-0.0636
3164.00,-0.0636
3162.00,-0.0636
3160.00,-0.0636
3158.00,-0.0637
3156.00,-0.0637
3154.00,-0.0637
3152.00,-0.0638
3150.00,-0.0637
3148.00,-0.0637
3146.00,-0.0637
3144.00,-0.0637
3142.00,-0.0637
3140.00,-0.0637
3138.00,-0.0637
3136.00,-0.0637
3134.00,-0.0637
3132.00,-0.0637
3130.00,-0.0637
3128.00,-0.0638
3126.00,-0.0638
3124.00,-0.0638
3122.00,-0.0638
3120.00,-0.0639
3118.00,-0.0639
3116.00,-0.0638
3114.00,-0.0638
3112.00,-0.0638
3110.00,-0.0638
3108.00,-0.0638
3106.00,-0.0638
3104.00,-0.0638
3102.00,-0.0638
3100.00,-0.0638
3098.00,-0.0638
3096.00,-0.0638
3094.00,-0.0638
3092.00,-0.0639
3090.00,-0.0639
3088.00,-0.0638
3086.00,-0.0638
3084.00,-0.0638
3082.00,-0.0638
3080.00,-0.0637
3078.00,-0.0637
3076.00,-0.0637
3074.00,-0.0637
3072.00,-0.0637
3070.00,-0.0637
3068.00,-0.0637
3066.00,-0.0637
3064.00,-0.0638
3062.00,-0.0638
3060.00,-0.0638
3058.00,-0.0638
3056.00,-0.0638
3054.00,-0.0637
3052.00,-0.0637
3050.00,-0.0637
3048.00,-0.0637
3046.00,-0.0636
3044.00,-0.0636
3042.00,-0.0636
3040.00,-0.0635
3038.00,-0.0635
3036.00,-0.0635
3034.00,-0.0635
3032.00,-0.0634
3030.00,-0.0634
3028.00,-0.0633
3026.00,-0.0632
3024.00,-0.0631
3022.00,-0.0629
3020.00,-0.0628
3018.00,-0.0627
3016.00,-0.0625
3014.00,-0.0624
3012.00,-0.0622
3010.00,-0.0621
3008.00,-0.0619
3006.00,-0.0618
3004.00,-0.0616
3002.00,-0.0615
3000.00,-0.0613
2998.00,-0.0612
2996.00,-0.0610
2994.00,-0.0609
2992.00,-0.0607
2990.00,-0.0603
2988.00,-0.0602
2986.00,-0.0602
2984.00,-0.0603
2982.00,-0.0603
2980.00,-0.0603
2978.00,-0.0603
2976.00,-0.0603
2974.00,-0.0603
2972.00,-0.0603
2970.00,-0.0603
2968.00,-0.0605
2966.00,-0.0606
2964.00,-0.0607
2962.00,-0.0608
2960.00,-0.0609
2958.00,-0.0609
2956.00,-0.0610
2954.00,-0.0611
2952.00,-0.0611
2950.00,-0.0612
2948.00,-0.0613
2946.00,-0.0613
2944.00,-0.0613
2942.00,-0.0614
2940.00,-0.0614
2938.00,-0.0614
2936.00,-0.0615
2934.00,-0.0615
2932.00,-0.0615
2930.00,-0.0614
2928.00,-0.0614
2926.00,-0.0613
2924.00,-0.0613
2922.00,-0.0612
2920.00,-0.0612
2918.00,-0.0612
2916.00,-0.0612
2914.00,-0.0611
2912.00,-0.0611
2910.00,-0.0610
2908.00,-0.0610
2906.00,-0.0610
2904.00,-0.0609
2902.00,-0.0608
2900.00,-0.0608
2898.00,-0.0610
2896.00,-0.0611
2894.00,-0.0611
2892.00,-0.0611
2890.00,-0.0612
2888.00,-0.0612
2886.00,-0.0612
2884.00,-0.0612
2882.00,-0.0614
2880.00,-0.0615
2878.00,-0.0616
2876.00,-0.0617
2874.00,-0.0618
2872.00,-0.0619
2870.00,-0.0619
2868.00,-0.0620
2866.00,-0.0620
2864.00,-0.0621
2862.00,-0.0622
2860.00,-0.0623
2858.00,-0.0624
2856.00,-0.0625
2854.00,-0.0626
2852.00,-0.0627
2850.00,-0.0628
2848.00,-0.0628
2846.00,-0.0629
2844.00,-0.0630
2842.00,-0.0631
2840.00,-0.0631
2838.00,-0.0632
2836.00,-0.0632
2834.00,-0.0632
2832.00,-0.0632
2830.00,-0.0632
2828.00,-0.0632
2826.00,-0.0632
2824.00,-0.0632
2822.00,-0.0632
2820.00,-0.0632
2818.00,-0.0632
2816.00,-0.0633
2814.00,-0.0633
2812.00,-0.0633
2810.00,-0.0633
2808.00,-0.0633
2806.00,-0.0633
2804.00,-0.0633
2802.00,-0.0633
2800.00,-0.0633
2798.00,-0.0633
2796.00,-0.0632
2794.00,-0.0632
2792.00,-0.0632
2790.00,-0.0633
2788.00,-0.0633
2786.00,-0.0633
2784.00,-0.0634
2782.00,-0.0634
2780.00,-0.0634
2778.00,-0.0634
2776.00,-0.0634
2774.00,-0.0634
2772.00,-0.0634
2770.00,-0.0634
2768.00,-0.0634
2766.00,-0.0634
2764.00,-0.0634
2762.00,-0.0634
2760.00,-0.0634
2758.00,-0.0634
2756.00,-0.0634
2754.00,-0.0634
2752.00,-0.0634
2750.00,-0.0635
2748.00,-0.0635
2746.00,-0.0635
2744.00,-0.0635
2742.00,-0.0635
2740.00,-0.0635
2738.00,-0.0635
2736.00,-0.0635
2734.00,-0.0634
2732.00,-0.0634
2730.00,-0.0634
2728.00,-0.0634
2726.00,-0.0634
2724.00,-0.0634
2722.00,-0.0634
2720.00,-0.0634
2718.00,-0.0634
2716.00,-0.0634
2714.00,-0.0634
2712.00,-0.0634
2710.00,-0.0634
2708.00,-0.0634
2706.00,-0.0633
2704.00,-0.0633
2702.00,-0.0633
2700.00,-0.0633
2698.00,-0.0633
2696.00,-0.0633
2694.00,-0.0633
2692.00,-0.0634
2690.00,-0.0634
2688.00,-0.0634
2686.00,-0.0634
2684.00,-0.0635
2682.00,-0.0635
2680.00,-0.0635
2678.00,-0.0634
2676.00,-0.0634
2674.00,-0.0634
2672.00,-0.0634
2670.00,-0.0634
2668.00,-0.0634
2666.00,-0.0634
2664.00,-0.0634
2662.00,-0.0634
2660.00,-0.0634
2658.00,-0.0634
2656.00,-0.0634
2654.00,-0.0635
2652.00,-0.0635
2650.00,-0.0635
2648.00,-0.0634
2646.00,-0.0634
2644.00,-0.0634
2642.00,-0.0634
2640.00,-0.0633
2638.00,-0.0633
2636.00,-0.0633
2634.00,-0.0633
2632.00,-0.0632
2630.00,-0.0632
2628.00,-0.0633
2626.00,-0.0633
2624.00,-0.0633
2622.00,-0.0633
2620.00,-0.0633
2618.00,-0.0633
2616.00,-0.0633
2614.00,-0.0633
2612.00,-0.0633
2610.00,-0.0633
2608.00,-0.0632
2606.00,-0.0632
2604.00,-0.0632
2602.00,-0.0633
2600.00,-0.0633
2598.00,-0.0633
2596.00,-0.0633
2594.00,-0.0633
2592.00,-0.0634
2590.00,-0.0634
2588.00,-0.0634
2586.00,-0.0634
2584.00,-0.0633
2582.00,-0.0633
2580.00,-0.0633
2578.00,-0.0633
2576.00,-0.0633
2574.00,-0.0633
2572.00,-0.0633
2570.00,-0.0633
2568.00,-0.0633
2566.00,-0.0633
2564.00,-0.0633
2562.00,-0.0634
2560.00,-0.0634
2558.00,-0.0634
2556.00,-0.0634
2554.00,-0.0633
2552.00,-0.0633
2550.00,-0.0633
2548.00,-0.0632
2546.00,-0.0632
2544.00,-0.0632
2542.00,-0.0631
2540.00,-0.0631
2538.00,-0.0631
2536.00,-0.0631
2534.00,-0.0631
2532.00,-0.0632
2530.00,-0.0632
2528.00,-0.0632
2526.00,-0.0632
2524.00,-0.0632
2522.00,-0.0632
2520.00,-0.0632
2518.00,-0.0631
2516.00,-0.0631
2514.00,-0.0631
2512.00,-0.0631
2510.00,-0.0631
2508.00,-0.0631
2506.00,-0.0631
2504.00,-0.0631
2502.00,-0.0631
2500.00,-0.0631
2498.00,-0.0631
2496.00,-0.0631
2494.00,-0.0632
2492.00,-0.0632
2490.00,-0.0631
2488.00,-0.0631
2486.00,-0.0631
2484.00,-0.0631
2482.00,-0.0630
2480.00,-0.0630
2478.00,-0.0630
2476.00,-0.0630
2474.00,-0.0630
2472.00,-0.0631
2470.00,-0.0631
2468.00,-0.0631
2466.00,-0.0631
2464.00,-0.0631
2462.00,-0.0631
2460.00,-0.0631
2458.00,-0.0630
2456.00,-0.0630
2454.00,-0.0629
2452.00,-0.0629
2450.00,-0.0629
2448.00,-0.0629
2446.00,-0.0629
2444.00,-0.0629
2442.00,-0.0629
2440.00,-0.0629
2438.00,-0.0630
2436.00,-0.0630
2434.00,-0.0630
2432.00,-0.0630
2430.00,-0.0630
2428.00,-0.0630
2426.00,-0.0630
2424.00,-0.0630
2422.00,-0.0630
2420.00,-0.0630
2418.00,-0.0630
2416.00,-0.0630
2414.00,-0.0630
2412.00,-0.0630
2410.00,-0.0630
2408.00,-0.0631
2406.00,-0.0631
2404.00,-0.0631
2402.00,-0.0631
2400.00,-0.0631
2398.00,-0.0631
2396.00,-0.0631
2394.00,-0.0630
2392.00,-0.0630
2390.00,-0.0630
2388.00,-0.0629
2386.00,-0.0628
2384.00,-0.0626
2382.00,-0.0626
2380.00,-0.0627
2378.00,-0.0631
2376.00,-0.0634
2374.00,-0.0634
2372.00,-0.0632
2370.00,-0.0629
2368.00,-0.0629
2366.00,-0.0629
2364.00,-0.0629
2362.00,-0.0629
2360.00,-0.0629
2358.00,-0.0629
2356.00,-0.0629
2354.00,-0.0630
2352.00,-0.0633
2350.00,-0.0632
2348.00,-0.0626
2346.00,-0.0625
2344.00,-0.0629
2342.00,-0.0628
2340.00,-0.0628
2338.00,-0.0629
2336.00,-0.0629
2334.00,-0.0628
2332.00,-0.0628
2330.00,-0.0628
2328.00,-0.0627
2326.00,-0.0625
2324.00,-0.0624
2322.00,-0.0625
2320.00,-0.0627
2318.00,-0.0626
2316.00,-0.0626
2314.00,-0.0626
2312.00,-0.0627
2310.00,-0.0627
2308.00,-0.0627
2306.00,-0.0627
2304.00,-0.0626
2302.00,-0.0626
2300.00,-0.0626
2298.00,-0.0626
2296.00,-0.0626
2294.00,-0.0627
2292.00,-0.0627
2290.00,-0.0627
2288.00,-0.0627
2286.00,-0.0628
2284.00,-0.0627
2282.00,-0.0627
2280.00,-0.0628
2278.00,-0.0628
2276.00,-0.0628
2274.00,-0.0628
2272.00,-0.0628
2270.00,-0.0627
2268.00,-0.0627
2266.00,-0.0627
2264.00,-0.0627
2262.00,-0.0627
2260.00,-0.0627
2258.00,-0.0627
2256.00,-0.0627
2254.00,-0.0627
2252.00,-0.0627
2250.00,-0.0627
2248.00,-0.0628
2246.00,-0.0628
2244.00,-0.0628
2242.00,-0.0628
2240.00,-0.0628
2238.00,-0.0627
2236.00,-0.0627
2234.00,-0.0627
2232.00,-0.0627
2230.00,-0.0627
2228.00,-0.0627
2226.00,-0.0627
2224.00,-0.0627
2222.00,-0.0627
2220.00,-0.0627
2218.00,-0.0627
2216.00,-0.0627
2214.00,-0.0627
2212.00,-0.0627
2210.00,-0.0627
2208.00,-0.0627
2206.00,-0.0627
2204.00,-0.0627
2202.00,-0.0627
2200.00,-0.0626
2198.00,-0.0626
2196.00,-0.0626
2194.00,-0.0626
2192.00,-0.0626
2190.00,-0.0626
2188.00,-0.0625
2186.00,-0.0625
2184.00,-0.0625
2182.00,-0.0625
2180.00,-0.0625
2178.00,-0.0625
2176.00,-0.0625
2174.00,-0.0625
2172.00,-0.0625
2170.00,-0.0625
2168.00,-0.0625
2166.00,-0.0625
2164.00,-0.0625
2162.00,-0.0625
2160.00,-0.0625
2158.00,-0.0625
2156.00,-0.0626
2154.00,-0.0626
2152.00,-0.0626
2150.00,-0.0626
2148.00,-0.0626
2146.00,-0.0626
2144.00,-0.0626
2142.00,-0.0626
2140.00,-0.0625
2138.00,-0.0625
2136.00,-0.0625
2134.00,-0.0625
2132.00,-0.0625
2130.00,-0.0625
2128.00,-0.0625
2126.00,-0.0625
2124.00,-0.0625
2122.00,-0.0625
2120.00,-0.0625
2118.00,-0.0625
2116.00,-0.0625
2114.00,-0.0625
2112.00,-0.0625
2110.00,-0.0625
2108.00,-0.0625
2106.00,-0.0624
2104.00,-0.0624
2102.00,-0.0624
2100.00,-0.0624
2098.00,-0.0624
2096.00,-0.0624
2094.00,-0.0624
2092.00,-0.0624
2090.00,-0.0624
2088.00,-0.0624
2086.00,-0.0624
2084.00,-0.0624
2082.00,-0.0625
2080.00,-0.0624
2078.00,-0.0624
2076.00,-0.0624
2074.00,-0.0624
2072.00,-0.0624
2070.00,-0.0624
2068.00,-0.0624
2066.00,-0.0624
2064.00,-0.0624
2062.00,-0.0625
2060.00,-0.0625
2058.00,-0.0625
2056.00,-0.0625
2054.00,-0.0625
2052.00,-0.0625
2050.00,-0.0625
2048.00,-0.0624
2046.00,-0.0624
2044.00,-0.0624
2042.00,-0.0624
2040.00,-0.0624
2038.00,-0.0625
2036.00,-0.0625
2034.00,-0.0625
2032.00,-0.0625
2030.00,-0.0625
2028.00,-0.0625
2026.00,-0.0625
2024.00,-0.0625
2022.00,-0.0625
2020.00,-0.0625
2018.00,-0.0624
2016.00,-0.0624
2014.00,-0.0623
2012.00,-0.0623
2010.00,-0.0623
2008.00,-0.0623
2006.00,-0.0623
2004.00,-0.0623
2002.00,-0.0623
2000.00,-0.0624
1998.00,-0.0624
1996.00,-0.0624
1994.00,-0.0624
1992.00,-0.0624
1990.00,-0.0625
1988.00,-0.0625
1986.00,-0.0625
1984.00,-0.0625
1982.00,-0.0625
1980.00,-0.0625
1978.00,-0.0625
1976.00,-0.0625
1974.00,-0.0625
1972.00,-0.0625
1970.00,-0.0625
1968.00,-0.0625
1966.00,-0.0625
1964.00,-0.0625
1962.00,-0.0625
1960.00,-0.0626
1958.00,-0.0625
1956.00,-0.0625
1954.00,-0.0625
1952.00,-0.0626
1950.00,-0.0626
1948.00,-0.0626
1946.00,-0.0625
1944.00,-0.0625
1942.00,-0.0626
1940.00,-0.0626
1938.00,-0.0625
1936.00,-0.0625
1934.00,-0.0625
1932.00,-0.0625
1930.00,-0.0624
1928.00,-0.0624
1926.00,-0.0624
1924.00,-0.0623
1922.00,-0.0623
1920.00,-0.0623
1918.00,-0.0623
1916.00,-0.0623
1914.00,-0.0623
1912.00,-0.0623
1910.00,-0.0623
1908.00,-0.0623
1906.00,-0.0624
1904.00,-0.0624
1902.00,-0.0624
1900.00,-0.0624
1898.00,-0.0624
1896.00,-0.0624
1894.00,-0.0624
1892.00,-0.0624
1890.00,-0.0624
1888.00,-0.0624
1886.00,-0.0624
1884.00,-0.0624
1882.00,-0.0624
1880.00,-0.0624
1878.00,-0.0625
1876.00,-0.0625
1874.00,-0.0625
1872.00,-0.0625
1870.00,-0.0625
1868.00,-0.0625
1866.00,-0.0626
1864.00,-0.0625
1862.00,-0.0625
1860.00,-0.0625
1858.00,-0.0625
1856.00,-0.0625
1854.00,-0.0625
1852.00,-0.0625
1850.00,-0.0625
1848.00,-0.0626
1846.00,-0.0626
1844.00,-0.0626
1842.00,-0.0626
1840.00,-0.0626
1838.00,-0.0626
1836.00,-0.0626
1834.00,-0.0626
1832.00,-0.0625
1830.00,-0.0625
1828.00,-0.0626
1826.00,-0.0625
1824.00,-0.0625
1822.00,-0.0625
1820.00,-0.0625
1818.00,-0.0626
1816.00,-0.0626
1814.00,-0.0626
1812.00,-0.0627
1810.00,-0.0627
1808.00,-0.0627
1806.00,-0.0627
1804.00,-0.0627
1802.00,-0.0627
1800.00,-0.0627
1798.00,-0.0628
1796.00,-0.0629
1794.00,-0.0628
1792.00,-0.0623
1790.00,-0.0627
1788.00,-0.0630
1786.00,-0.0631
1784.00,-0.0629
1782.00,-0.0628
1780.00,-0.0629
1778.00,-0.0629
1776.00,-0.0629
1774.00,-0.0629
1772.00,-0.0629
1770.00,-0.0629
1768.00,-0.0628
1766.00,-0.0629
1764.00,-0.0628
1762.00,-0.0628
1760.00,-0.0628
1758.00,-0.0627
1756.00,-0.0627
1754.00,-0.0627
1752.00,-0.0627
1750.00,-0.0627
1748.00,-0.0627
1746.00,-0.0628
1744.00,-0.0628
1742.00,-0.0628
1740.00,-0.0627
1738.00,-0.0628
1736.00,-0.0628
1734.00,-0.0627
1732.00,-0.0627
1730.00,-0.0627
1728.00,-0.0628
1726.00,-0.0627
1724.00,-0.0627
1722.00,-0.0628
1720.00,-0.0628
1718.00,-0.0628
1716.00,-0.0628
1714.00,-0.0628
1712.00,-0.0628
1710.00,-0.0629
1708.00,-0.0628
1706.00,-0.0628
1704.00,-0.0629
1702.00,-0.0628
1700.00,-0.0627
1698.00,-0.0628
1696.00,-0.0628
1694.00,-0.0628
1692.00,-0.0628
1690.00,-0.0628
1688.00,-0.0629
1686.00,-0.0629
1684.00,-0.0628
1682.00,-0.0629
1680.00,-0.0629
1678.00,-0.0629
1676.00,-0.0628
1674.00,-0.0628
1672.00,-0.0627
1670.00,-0.0627
1668.00,-0.0627
1666.00,-0.0627
1664.00,-0.0627
1662.00,-0.0627
1660.00,-0.0627
1658.00,-0.0627
1656.00,-0.0628
1654.00,-0.0628
1652.00,-0.0628
1650.00,-0.0628
1648.00,-0.0627
1646.00,-0.0628
1644.00,-0.0628
1642.00,-0.0628
1640.00,-0.0628
1638.00,-0.0628
1636.00,-0.0628
1634.00,-0.0628
1632.00,-0.0628
1630.00,-0.0628
1628.00,-0.0628
1626.00,-0.0628
1624.00,-0.0628
1622.00,-0.0629
1620.00,-0.0629
1618.00,-0.0629
1616.00,-0.0628
1614.00,-0.0628
1612.00,-0.0628
1610.00,-0.0628
1608.00,-0.0628
1606.00,-0.0627
1604.00,-0.0628
1602.00,-0.0628
1600.00,-0.0628
1598.00,-0.0628
1596.00,-0.0628
1594.00,-0.0628
1592.00,-0.0628
1590.00,-0.0628
1588.00,-0.0628
1586.00,-0.0628
1584.00,-0.0628
1582.00,-0.0628
1580.00,-0.0628
1578.00,-0.0628
1576.00,-0.0628
1574.00,-0.0628
1572.00,-0.0628
1570.00,-0.0628
1568.00,-0.0628
1566.00,-0.0628
1564.00,-0.0628
1562.00,-0.0628
1560.00,-0.0628
1558.00,-0.0628
1556.00,-0.0628
1554.00,-0.0628
1552.00,-0.0628
1550.00,-0.0628
1548.00,-0.0629
1546.00,-0.0628
1544.00,-0.0629
1542.00,-0.0629
1540.00,-0.0629
1538.00,-0.0629
1536.00,-0.0629
1534.00,-0.0629
1532.00,-0.0629
1530.00,-0.0629
1528.00,-0.0629
1526.00,-0.0629
1524.00,-0.0629
1522.00,-0.0628
1520.00,-0.0628
1518.00,-0.0628
1516.00,-0.0628
1514.00,-0.0627
1512.00,-0.0627
1510.00,-0.0627
1508.00,-0.0626
1506.00,-0.0626
1504.00,-0.0626
1502.00,-0.0625
1500.00,-0.0625
1498.00,-0.0624
1496.00,-0.0622
1494.00,-0.0622
1492.00,-0.0622
1490.00,-0.0623
1488.00,-0.0624
1486.00,-0.0625
1484.00,-0.0625
1482.00,-0.0625
1480.00,-0.0625
1478.00,-0.0625
1476.00,-0.0625
1474.00,-0.0626
1472.00,-0.0626
1470.00,-0.0626
1468.00,-0.0626
1466.00,-0.0626
1464.00,-0.0626
1462.00,-0.0626
1460.00,-0.0626
1458.00,-0.0626
1456.00,-0.0624
1454.00,-0.0623
1452.00,-0.0622
1450.00,-0.0622
1448.00,-0.0623
1446.00,-0.0624
1444.00,-0.0624
1442.00,-0.0625
1440.00,-0.0625
1438.00,-0.0625
1436.00,-0.0624
1434.00,-0.0624
1432.00,-0.0624
1430.00,-0.0624
1428.00,-0.0624
1426.00,-0.0624
1424.00,-0.0624
1422.00,-0.0623
1420.00,-0.0621
1418.00,-0.0620
1416.00,-0.0619
1414.00,-0.0618
1412.00,-0.0616
1410.00,-0.0615
1408.00,-0.0614
1406.00,-0.0613
1404.00,-0.0614
1402.00,-0.0615
1400.00,-0.0616
1398.00,-0.0617
1396.00,-0.0615
1394.00,-0.0613
1392.00,-0.0615
1390.00,-0.0618
1388.00,-0.0618
1386.00,-0.0618
1384.00,-0.0617
1382.00,-0.0617
1380.00,-0.0617
1378.00,-0.0618
1376.00,-0.0619
1374.00,-0.0620
1372.00,-0.0621
1370.00,-0.0622
1368.00,-0.0623
1366.00,-0.0624
1364.00,-0.0624
1362.00,-0.0625
1360.00,-0.0625
1358.00,-0.0625
1356.00,-0.0625
1354.00,-0.0626
1352.00,-0.0626
1350.00,-0.0626
1348.00,-0.0626
1346.00,-0.0626
1344.00,-0.0627
1342.00,-0.0627
1340.00,-0.0627
1338.00,-0.0628
1336.00,-0.0628
1334.00,-0.0628
1332.00,-0.0628
1330.00,-0.0628
1328.00,-0.0628
1326.00,-0.0628
1324.00,-0.0628
1322.00,-0.0628
1320.00,-0.0628
1318.00,-0.0628
1316.00,-0.0628
1314.00,-0.0628
1312.00,-0.0628
1310.00,-0.0629
1308.00,-0.0629
1306.00,-0.0629
1304.00,-0.0629
1302.00,-0.0629
1300.00,-0.0629
1298.00,-0.0628
1296.00,-0.0628
1294.00,-0.0628
1292.00,-0.0627
1290.00,-0.0627
1288.00,-0.0627
1286.00,-0.0627
1284.00,-0.0626
1282.00,-0.0626
1280.00,-0.0626
1278.00,-0.0625
1276.00,-0.0625
1274.00,-0.0625
1272.00,-0.0624
1270.00,-0.0623
1268.00,-0.0622
1266.00,-0.0621
1264.00,-0.0619
1262.00,-0.0618
1260.00,-0.0617
1258.00,-0.0617
1256.00,-0.0617
1254.00,-0.0618
1252.00,-0.0618
1250.00,-0.0617
1248.00,-0.0619
1246.00,-0.0620
1244.00,-0.0620
1242.00,-0.0619
1240.00,-0.0620
1238.00,-0.0621
1236.00,-0.0621
1234.00,-0.0620
1232.00,-0.0619
1230.00,-0.0619
1228.00,-0.0619
1226.00,-0.0619
1224.00,-0.0620
1222.00,-0.0620
1220.00,-0.0621
1218.00,-0.0622
1216.00,-0.0622
1214.00,-0.0623
1212.00,-0.0624
1210.00,-0.0624
1208.00,-0.0625
1206.00,-0.0625
1204.00,-0.0625
1202.00,-0.0625
1200.00,-0.0625
1198.00,-0.0625
1196.00,-0.0626
1194.00,-0.0626
1192.00,-0.0626
1190.00,-0.0627
1188.00,-0.0627
1186.00,-0.0627
1184.00,-0.0628
1182.00,-0.0628
1180.00,-0.0628
1178.00,-0.0628
1176.00,-0.0628
1174.00,-0.0628
1172.00,-0.0628
1170.00,-0.0628
1168.00,-0.0628
1166.00,-0.0627
1164.00,-0.0627
1162.00,-0.0627
1160.00,-0.0627
1158.00,-0.0627
1156.00,-0.0627
1154.00,-0.0627
1152.00,-0.0627
1150.00,-0.0627
1148.00,-0.0627
1146.00,-0.0627
1144.00,-0.0627
1142.00,-0.0627
1140.00,-0.0627
1138.00,-0.0626
1136.00,-0.0626
1134.00,-0.0626
1132.00,-0.0626
1130.00,-0.0625
1128.00,-0.0625
1126.00,-0.0625
1124.00,-0.0625
1122.00,-0.0624
1120.00,-0.0623
1118.00,-0.0623
1116.00,-0.0622
1114.00,-0.0621
1112.00,-0.0619
1110.00,-0.0618
1108.00,-0.0616
1106.00,-0.0615
1104.00,-0.0614
1102.00,-0.0613
1100.00,-0.0613
1098.00,-0.0612
1096.00,-0.0612
1094.00,-0.0611
1092.00,-0.0609
1090.00,-0.0605
1088.00,-0.0602
1086.00,-0.0600
1084.00,-0.0597
1082.00,-0.0593
1080.00,-0.0590
1078.00,-0.0588
1076.00,-0.0587
1074.00,-0.0586
1072.00,-0.0588
1070.00,-0.0588
1068.00,-0.0584
1066.00,-0.0582
1064.00,-0.0585
1062.00,-0.0589
1060.00,-0.0588
1058.00,-0.0584
1056.00,-0.0584
1054.00,-0.0584
1052.00,-0.0583
1050.00,-0.0583
1048.00,-0.0585
1046.00,-0.0587
1044.00,-0.0590
1042.00,-0.0592
1040.00,-0.0594
1038.00,-0.0596
1036.00,-0.0599
1034.00,-0.0602
1032.00,-0.0605
1030.00,-0.0607
1028.00,-0.0606
1026.00,-0.0608
1024.00,-0.0612
1022.00,-0.0613
1020.00,-0.0614
1018.00,-0.0615
1016.00,-0.0616
1014.00,-0.0617
1012.00,-0.0618
1010.00,-0.0620
1008.00,-0.0622
1006.00,-0.0623
1004.00,-0.0625
1002.00,-0.0626
1000.00,-0.0628
998.00,-0.0629
996.00,-0.0630
994.00,-0.0631
992.00,-0.0631
990.00,-0.0632
988.00,-0.0633
986.00,-0.0633
984.00,-0.0633
982.00,-0.0634
980.00,-0.0634
978.00,-0.0635
976.00,-0.0635
974.00,-0.0635
972.00,-0.0635
970.00,-0.0636
968.00,-0.0636
966.00,-0.0637
964.00,-0.0637
962.00,-0.0637
960.00,-0.0637
958.00,-0.0638
956.00,-0.0638
954.00,-0.0637
952.00,-0.0637
950.00,-0.0638
948.00,-0.0638
946.00,-0.0638
944.00,-0.0638
942.00,-0.0638
940.00,-0.0639
938.00,-0.0639
936.00,-0.0639
934.00,-0.0639
932.00,-0.0639
930.00,-0.0639
928.00,-0.0639
926.00,-0.0639
924.00,-0.0639
922.00,-0.0639
920.00,-0.0638
918.00,-0.0638
916.00,-0.0638
914.00,-0.0637
912.00,-0.0637
910.00,-0.0636
908.00,-0.0636
906.00,-0.0636
904.00,-0.0635
902.00,-0.0634
900.00,-0.0634
898.00,-0.0633
896.00,-0.0633
894.00,-0.0633
892.00,-0.0633
890.00,-0.0633
888.00,-0.0634
886.00,-0.0633
884.00,-0.0633
882.00,-0.0633
880.00,-0.0632
878.00,-0.0632
876.00,-0.0632
874.00,-0.0632
872.00,-0.0632
870.00,-0.0632
868.00,-0.0633
866.00,-0.0634
864.00,-0.0635
862.00,-0.0635
860.00,-0.0636
858.00,-0.0636
856.00,-0.0636
854.00,-0.0637
852.00,-0.0637
850.00,-0.0637
848.00,-0.0637
846.00,-0.0638
844.00,-0.0638
842.00,-0.0638
840.00,-0.0638
838.00,-0.0638
836.00,-0.0638
834.00,-0.0637
832.00,-0.0636
830.00,-0.0635
828.00,-0.0634
826.00,-0.0633
824.00,-0.0633
822.00,-0.0633
820.00,-0.0634
818.00,-0.0634
816.00,-0.0635
814.00,-0.0635
812.00,-0.0635
810.00,-0.0635
808.00,-0.0636
806.00,-0.0636
804.00,-0.0635
802.00,-0.0635
800.00,-0.0636
798.00,-0.0636
796.00,-0.0636
794.00,-0.0636
792.00,-0.0637
790.00,-0.0637
788.00,-0.0638
786.00,-0.0638
784.00,-0.0638
782.00,-0.0638
780.00,-0.0639
778.00,-0.0639
776.00,-0.0639
774.00,-0.0639
772.00,-0.0639
770.00,-0.0639
768.00,-0.0639
766.00,-0.0639
764.00,-0.0639
762.00,-0.0638
760.00,-0.0638
758.00,-0.0638
756.00,-0.0638
754.00,-0.0638
752.00,-0.0638
750.00,-0.0638
748.00,-0.0638
746.00,-0.0638
744.00,-0.0638
742.00,-0.0638
740.00,-0.0638
738.00,-0.0638
736.00,-0.0638
734.00,-0.0638
732.00,-0.0638
730.00,-0.0638
728.00,-0.0637
726.00,-0.0637
724.00,-0.0638
722.00,-0.0638
720.00,-0.0638
718.00,-0.0638
716.00,-0.0638
714.00,-0.0638
712.00,-0.0637
710.00,-0.0637
708.00,-0.0638
706.00,-0.0637
704.00,-0.0637
702.00,-0.0638
700.00,-0.0638
698.00,-0.0638
696.00,-0.0638
694.00,-0.0637
692.00,-0.0638
690.00,-0.0637
688.00,-0.0637
686.00,-0.0638
684.00,-0.0639
682.00,-0.0640
680.00,-0.0640
678.00,-0.0640
676.00,-0.0640
674.00,-0.0639
672.00,-0.0641
670.00,-0.0656
668.00,-0.0680
666.00,-0.0658
664.00,-0.0641
662.00,-0.0637
660.00,-0.0637
658.00,-0.0638
656.00,-0.0638
654.00,-0.0639
652.00,-0.0638
650.00,-0.0638
648.00,-0.0638
646.00,-0.0638
644.00,-0.0638
642.00,-0.0637
640.00,-0.0636
638.00,-0.0636
636.00,-0.0635
634.00,-0.0635
632.00,-0.0635
630.00,-0.0635
628.00,-0.0635
626.00,-0.0636
624.00,-0.0635
622.00,-0.0635
620.00,-0.0635
618.00,-0.0635
616.00,-0.0635
614.00,-0.0635
612.00,-0.0634
610.00,-0.0635
608.00,-0.0634
606.00,-0.0634
604.00,-0.0634
602.00,-0.0634
600.00,-0.0634
598.00,-0.0633
596.00,-0.0634
594.00,-0.0635
592.00,-0.0635
590.00,-0.0636
588.00,-0.0636
586.00,-0.0635
584.00,-0.0637
582.00,-0.0637
580.00,-0.0636
578.00,-0.0636
576.00,-0.0636
574.00,-0.0637
572.00,-0.0636
570.00,-0.0635
568.00,-0.0636
566.00,-0.0635
564.00,-0.0635
562.00,-0.0636
560.00,-0.0636
558.00,-0.0638
556.00,-0.0638
554.00,-0.0636
552.00,-0.0637
550.00,-0.0636
548.00,-0.0636
546.00,-0.0637
544.00,-0.0636
542.00,-0.0636
540.00,-0.0637
538.00,-0.0636
536.00,-0.0636
534.00,-0.0638
532.00,-0.0637
530.00,-0.0640
528.00,-0.0641
526.00,-0.0640
524.00,-0.0640
522.00,-0.0638
520.00,-0.0637
518.00,-0.0638
516.00,-0.0638
514.00,-0.0641
512.00,-0.0641
510.00,-0.0639
508.00,-0.0639
506.00,-0.0637
504.00,-0.0638
502.00,-0.0640
500.00,-0.0638
