Created as New Dataset,Sample 032 By Analyst Date Wednesday, April 02 2025
cm-1,A
4000.00,-0.0638
3998.00,-0.0638
3996.00,-0.0638
3994.00,-0.0637
3992.00,-0.0637
3990.00,-0.0637
3988.00,-0.0637
3986.00,-0.0637
3984.00,-0.0636
3982.00,-0.0637
3980.00,-0.0637
3978.00,-0.0637
3976.00,-0.0637
3974.00,-0.0637
3972.00,-0.0638
3970.00,-0.0638
3968.00,-0.0638
3966.00,-0.0638
3964.00,-0.0638
3962.00,-0.0637
3960.00,-0.0637
3958.00,-0.0637
3956.00,-0.0637
3954.00,-0.0637
3952.00,-0.0637
3950.00,-0.0637
3948.00,-0.0637
3946.00,-0.0637
3944.00,-0.0637
3942.00,-0.0638
3940.00,-0.0638
3938.00,-0.0638
3936.00,-0.0638
3934.00,-0.0638
3932.00,-0.0638
3930.00,-0.0638
3928.00,-0.0637
3926.00,-0.0637
3924.00,-0.0637
3922.00,-0.0637
3920.00,-0.0636
3918.00,-0.0636
3916.00,-0.0636
3914.00,-0.0636
3912.00,-0.0636
3910.00,-0.0636
3908.00,-0.0637
3906.00,-0.0637
3904.00,-0.0637
3902.00,-0.0636
3900.00,-0.0635
3898.00,-0.0635
3896.00,-0.0635
3894.00,-0.0635
3892.00,-0.0635
3890.00,-0.0636
3888.00,-0.0636
3886.00,-0.0635
3884.00,-0.0636
3882.00,-0.0635
3880.00,-0.0635
3878.00,-0.0637
3876.00,-0.0636
3874.00,-0.0637
3872.00,-0.0637
3870.00,-0.0636
3868.00,-0.0637
3866.00,-0.0635
3864.00,-0.0635
3862.00,-0.0635
3860.00,-0.0635
3858.00,-0.0637
3856.00,-0.0639
3854.00,-0.0637
3852.00,-0.0637
3850.00,-0.0636
3848.00,-0.0635
3846.00,-0.0636
3844.00,-0.0637
3842.00,-0.0638
3840.00,-0.0638
3838.00,-0.0637
3836.00,-0.0637
3834.00,-0.0636
3832.00,-0.0635
3830.00,-0.0635
3828.00,-0.0635
3826.00,-0.0635
3824.00,-0.0636
3822.00,-0.0635
3820.00,-0.0636
3818.00,-0.0636
3816.00,-0.0635
3814.00,-0.0635
3812.00,-0.0635
3810.00,-0.0636
3808.00,-0.0635
3806.00,-0.0636
3804.00,-0.0636
3802.00,-0.0634
3800.00,-0.0635
3798.00,-0.0634
3796.00,-0.0633
3794.00,-0.0634
3792.00,-0.0634
3790.00,-0.0634
3788.00,-0.0635
3786.00,-0.0635
3784.00,-0.0636
3782.00,-0.0636
3780.00,-0.0635
3778.00,-0.0636
3776.00,-0.0635
3774.00,-0.0636
3772.00,-0.0636
3770.00,-0.0636
3768.00,-0.0635
3766.00,-0.0635
3764.00,-0.0635
3762.00,-0.0635
3760.00,-0.0635
3758.00,-0.0636
3756.00,-0.0637
3754.00,-0.0638
3752.00,-0.0638
3750.00,-0.0637
3748.00,-0.0637
3746.00,-0.0635
3744.00,-0.0634
3742.00,-0.0635
3740.00,-0.0634
3738.00,-0.0634
3736.00,-0.0634
3734.00,-0.0634
3732.00,-0.0634
3730.00,-0.0634
3728.00,-0.0633
3726.00,-0.0633
3724.00,-0.0633
3722.00,-0.0633
3720.00,-0.0633
3718.00,-0.0633
3716.00,-0.0634
3714.00,-0.0633
3712.00,-0.0632
3710.00,-0.0631
3708.00,-0.0631
3706.00,-0.0630
3704.00,-0.0630
3702.00,-0.0630
3700.00,-0.0629
3698.00,-0.0628
3696.00,-0.0628
3694.00,-0.0628
3692.00,-0.0629
3690.00,-0.0629
3688.00,-0.0628
3686.00,-0.0627
3684.00,-0.0626
3682.00,-0.0627
3680.00,-0.0628
3678.00,-0.0627
3676.00,-0.0625
3674.00,-0.0626
3672.00,-0.0625
3670.00,-0.0624
3668.00,-0.0624
3666.00,-0.0624
3664.00,-0.0624
3662.00,-0.0625
3660.00,-0.0626
3658.00,-0.0627
3656.00,-0.0628
3654.00,-0.0629
3652.00,-0.0630
3650.00,-0.0629
3648.00,-0.0629
3646.00,-0.0629
3644.00,-0.0628
3642.00,-0.0629
3640.00,-0.0630
3638.00,-0.0631
3636.00,-0.0631
3634.00,-0.0632
3632.00,-0.0633
3630.00,-0.0633
3628.00,-0.0632
3626.00,-0.0633
3624.00,-0.0633
3622.00,-0.0635
3620.00,-0.0635
3618.00,-0.0635
3616.00,-0.0634
3614.00,-0.0633
3612.00,-0.0633
3610.00,-0.0633
3608.00,-0.0633
3606.00,-0.0633
3604.00,-0.0634
3602.00,-0.0635
3600.00,-0.0635
3598.00,-0.0636
3596.00,-0.0635
3594.00,-0.0636
3592.00,-0.0636
3590.00,-0.0636
3588.00,-0.0636
3586.00,-0.0636
3584.00,-0.0635
3582.00,-0.0635
3580.00,-0.0635
3578.00,-0.0635
3576.00,-0.0635
3574.00,-0.0636
3572.00,-0.0636
3570.00,-0.0636
3568.00,-0.0636
3566.00,-0.0636
3564.00,-0.0636
3562.00,-0.0636
3560.00,-0.0637
3558.00,-0.0637
3556.00,-0.0637
3554.00,-0.0637
3552.00,-0.0636
3550.00,-0.0636
3548.00,-0.0636
3546.00,-0.0635
3544.00,-0.0635
3542.00,-0.0635
3540.00,-0.0635
3538.00,-0.0635
3536.00,-0.0635
3534.00,-0.0636
3532.00,-0.0636
3530.00,-0.0636
3528.00,-0.0636
3526.00,-0.0636
3524.00,-0.0636
3522.00,-0.0636
3520.00,-0.0636
3518.00,-0.0636
3516.00,-0.0636
3514.00,-0.0636
3512.00,-0.0636
3510.00,-0.0636
3508.00,-0.0636
3506.00,-0.0636
3504.00,-0.0636
3502.00,-0.0637
3500.00,-0.0637
3498.00,-0.0637
3496.00,-0.0637
3494.00,-0.0637
3492.00,-0.0637
3490.00,-0.0637
3488.00,-0.0637
3486.00,-0.0637
3484.00,-0.0636
3482.00,-0.0637
3480.00,-0.0637
3478.00,-0.0637
3476.00,-0.0637
3474.00,-0.0637
3472.00,-0.0638
3470.00,-0.0638
3468.00,-0.0638
3466.00,-0.0638
3464.00,-0.0638
3462.00,-0.0638
3460.00,-0.0638
3458.00,-0.0637
3456.00,-0.0637
3454.00,-0.0637
3452.00,-0.0637
3450.00,-0.0636
3448.00,-0.0636
3446.00,-0.0636
3444.00,-0.0637
3442.00,-0.0637
3440.00,-0.0637
3438.00,-0.0637
3436.00,-0.0638
3434.00,-0.0637
3432.00,-0.0637
3430.00,-0.0637
3428.00,-0.0637
3426.00,-0.0637
3424.00,-0.0637
3422.00,-0.0636
3420.00,-0.0636
3418.00,-0.0636
3416.00,-0.0637
3414.00,-0.0637
3412.00,-0.0637
3410.00,-0.0637
3408.00,-0.0637
3406.00,-0.0637
3404.00,-0.0637
3402.00,-0.0637
3400.00,-0.0637
3398.00,-0.0637
3396.00,-0.0637
3394.00,-0.0636
3392.00,-0.0636
3390.00,-0.0636
3388.00,-0.0636
3386.00,-0.0636
3384.00,-0.0636
3382.00,-0.0636
3380.00,-0.0637
3378.00,-0.0637
3376.00,-0.0637
3374.00,-0.0637
3372.00,-0.0637
3370.00,-0.0637
3368.00,-0.0636
3366.00,-0.0636
3364.00,-0.0636
3362.00,-0.0635
3360.00,-0.0635
3358.00,-0.0635
3356.00,-0.0634
3354.00,-0.0635
3352.00,-0.0635
3350.00,-0.0635
3348.00,-0.0635
3346.00,-0.0635
3344.00,-0.0636
3342.00,-0.0636
3340.00,-0.0636
3338.00,-0.0636
3336.00,-0.0636
3334.00,-0.0636
3332.00,-0.0636
3330.00,-0.0636
3328.00,-0.0636
3326.00,-0.0636
3324.00,-0.0636
3322.00,-0.0636
3320.00,-0.0636
3318.00,-0.0636
3316.00,-0.0637
3314.00,-0.0637
3312.00,-0.0637
3310.00,-0.0637
3308.00,-0.0638
3306.00,-0.0638
3304.00,-0.0638
3302.00,-0.0637
3300.00,-0.0637
3298.00,-0.0637
3296.00,-0.0637
3294.00,-0.0637
3292.00,-0.0637
3290.00,-0.0637
3288.00,-0.0637
3286.00,-0.0637
3284.00,-0.0637
3282.00,-0.0637
3280.00,-0.0637
3278.00,-0.0637
3276.00,-0.0637
3274.00,-0.0636
3272.00,-0.0636
3270.00,-0.0635
3268.00,-0.0635
3266.00,-0.0635
3264.00,-0.0634
3262.00,-0.0634
3260.00,-0.0634
3258.00,-0.0634
3256.00,-0.0635
3254.00,-0.0635
3252.00,-0.0635
3250.00,-0.0635
3248.00,-0.0636
3246.00,-0.0636
3244.00,-0.0635
3242.00,-0.0635
3240.00,-0.0635
3238.00,-0.0635
3236.00,-0.0635
3234.00,-0.0635
3232.00,-0.0635
3230.00,-0.0635
3228.00,-0.0635
3226.00,-0.0635
3224.00,-0.0636
3222.00,-0.0636
3220.00,-0.0636
3218.00,-0.0636
3216.00,-0.0637
3214.00,-0.0637
3212.00,-0.0637
3210.00,-0.0636
3208.00,-0.0636
3206.00,-0.0636
3204.00,-0.0636
3202.00,-0.0636
3200.00,-0.0636
3198.00,-0.0636
3196.00,-0.0636
3194.00,-0.0637
3192.00,-0.0637
3190.00,-0.0637
3188.00,-0.0637
3186.00,-0.0637
3184.00,-0.0637
3182.00,-0.0637
3180.00,-0.0636
3178.00,-0.0636
3176.00,-0.0636
3174.00,-0.0635
3172.00,-0.0635
3170.00,-0.0635
3168.00,-0.0635
3166.00,-0.0635
3164.00,-0.0635
3162.00,-0.0635
3160.00,-0.0636
3158.00,-0.0636
3156.00,-0.0636
3154.00,-0.0636
3152.00,-0.0637
3150.00,-0.0637
3148.00,-0.0636
3146.00,-0.0636
3144.00,-0.0636
3142.00,-0.0636
3140.00,-0.0636
3138.00,-0.0636
3136.00,-0.0636
3134.00,-0.0636
3132.00,-0.0636
3130.00,-0.0636
3128.00,-0.0637
3126.00,-0.0637
3124.00,-0.0637
3122.00,-0.0637
3120.00,-0.0638
3118.00,-0.0638
3116.00,-0.0637
3114.00,-0.0637
3112.00,-0.0637
3110.00,-0.0637
3108.00,-0.0637
3106.00,-0.0637
3104.00,-0.0637
3102.00,-0.0637
3100.00,-0.0637
3098.00,-0.0637
3096.00,-0.0637
3094.00,-0.0637
3092.00,-0.0637
3090.00,-0.0637
3088.00,-0.0637
3086.00,-0.0637
3084.00,-0.0637
3082.00,-0.0636
3080.00,-0.0636
3078.00,-0.0636
3076.00,-0.0636
3074.00,-0.0636
3072.00,-0.0636
3070.00,-0.0636
3068.00,-0.0636
3066.00,-0.0636
3064.00,-0.0637
3062.00,-0.0637
3060.00,-0.0637
3058.00,-0.0637
3056.00,-0.0637
3054.00,-0.0636
3052.00,-0.0636
3050.00,-0.0636
3048.00,-0.0635
3046.00,-0.0635
3044.00,-0.0635
3042.00,-0.0634
3040.00,-0.0634
3038.00,-0.0634
3036.00,-0.0633
3034.00,-0.0633
3032.00,-0.0632
3030.00,-0.0631
3028.00,-0.0630
3026.00,-0.0629
3024.00,-0.0627
3022.00,-0.0626
3020.00,-0.0624
3018.00,-0.0622
3016.00,-0.0620
3014.00,-0.0618
3012.00,-0.0616
3010.00,-0.0614
3008.00,-0.0612
3006.00,-0.0610
3004.00,-0.0608
3002.00,-0.0606
3000.00,-0.0604
2998.00,-0.0602
2996.00,-0.0601
2994.00,-0.0599
2992.00,-0.0596
2990.00,-0.0591
2988.00,-0.0590
2986.00,-0.0590
2984.00,-0.0591
2982.00,-0.0591
2980.00,-0.0591
2978.00,-0.0591
2976.00,-0.0591
2974.00,-0.0591
2972.00,-0.0591
2970.00,-0.0592
2968.00,-0.0593
2966.00,-0.0595
2964.00,-0.0597
2962.00,-0.0598
2960.00,-0.0599
2958.00,-0.0599
2956.00,-0.0600
2954.00,-0.0601
2952.00,-0.0602
2950.00,-0.0603
2948.00,-0.0604
2946.00,-0.0604
2944.00,-0.0605
2942.00,-0.0605
2940.00,-0.0606
2938.00,-0.0606
2936.00,-0.0606
2934.00,-0.0607
2932.00,-0.0607
2930.00,-0.0606
2928.00,-0.0605
2926.00,-0.0605
2924.00,-0.0604
2922.00,-0.0604
2920.00,-0.0603
2918.00,-0.0603
2916.00,-0.0603
2914.00,-0.0602
2912.00,-0.0602
2910.00,-0.0601
2908.00,-0.0601
2906.00,-0.0601
2904.00,-0.0599
2902.00,-0.0597
2900.00,-0.0598
2898.00,-0.0600
2896.00,-0.0602
2894.00,-0.0602
2892.00,-0.0602
2890.00,-0.0603
2888.00,-0.0603
2886.00,-0.0603
2884.00,-0.0604
2882.00,-0.0605
2880.00,-0.0607
2878.00,-0.0609
2876.00,-0.0610
2874.00,-0.0611
2872.00,-0.0612
2870.00,-0.0613
2868.00,-0.0613
2866.00,-0.0614
2864.00,-0.0615
2862.00,-0.0617
2860.00,-0.0618
2858.00,-0.0619
2856.00,-0.0620
2854.00,-0.0622
2852.00,-0.0623
2850.00,-0.0624
2848.00,-0.0625
2846.00,-0.0626
2844.00,-0.0627
2842.00,-0.0628
2840.00,-0.0628
2838.00,-0.0629
2836.00,-0.0629
2834.00,-0.0629
2832.00,-0.0630
2830.00,-0.0630
2828.00,-0.0630
2826.00,-0.0630
2824.00,-0.0630
2822.00,-0.0630
2820.00,-0.0630
2818.00,-0.0630
2816.00,-0.0631
2814.00,-0.0631
2812.00,-0.0631
2810.00,-0.0631
2808.00,-0.0631
2806.00,-0.0631
2804.00,-0.0631
2802.00,-0.0631
2800.00,-0.0631
2798.00,-0.0631
2796.00,-0.0631
2794.00,-0.0631
2792.00,-0.0631
2790.00,-0.0631
2788.00,-0.0631
2786.00,-0.0632
2784.00,-0.0632
2782.00,-0.0632
2780.00,-0.0632
2778.00,-0.0633
2776.00,-0.0633
2774.00,-0.0633
2772.00,-0.0633
2770.00,-0.0633
2768.00,-0.0632
2766.00,-0.0632
2764.00,-0.0632
2762.00,-0.0632
2760.00,-0.0632
2758.00,-0.0632
2756.00,-0.0633
2754.00,-0.0633
2752.00,-0.0633
2750.00,-0.0634
2748.00,-0.0634
2746.00,-0.0634
2744.00,-0.0634
2742.00,-0.0634
2740.00,-0.0634
2738.00,-0.0633
2736.00,-0.0633
2734.00,-0.0633
2732.00,-0.0633
2730.00,-0.0633
2728.00,-0.0633
2726.00,-0.0632
2724.00,-0.0632
2722.00,-0.0633
2720.00,-0.0632
2718.00,-0.0633
2716.00,-0.0633
2714.00,-0.0633
2712.00,-0.0633
2710.00,-0.0633
2708.00,-0.0632
2706.00,-0.0632
2704.00,-0.0632
2702.00,-0.0632
2700.00,-0.0632
2698.00,-0.0632
2696.00,-0.0632
2694.00,-0.0632
2692.00,-0.0632
2690.00,-0.0633
2688.00,-0.0633
2686.00,-0.0633
2684.00,-0.0633
2682.00,-0.0633
2680.00,-0.0633
2678.00,-0.0633
2676.00,-0.0633
2674.00,-0.0633
2672.00,-0.0633
2670.00,-0.0633
2668.00,-0.0633
2666.00,-0.0633
2664.00,-0.0633
2662.00,-0.0633
2660.00,-0.0633
2658.00,-0.0633
2656.00,-0.0633
2654.00,-0.0634
2652.00,-0.0633
2650.00,-0.0633
2648.00,-0.0633
2646.00,-0.0633
2644.00,-0.0633
2642.00,-0.0632
2640.00,-0.0632
2638.00,-0.0632
2636.00,-0.0632
2634.00,-0.0632
2632.00,-0.0631
2630.00,-0.0631
2628.00,-0.0632
2626.00,-0.0632
2624.00,-0.0632
2622.00,-0.0632
2620.00,-0.0632
2618.00,-0.0632
2616.00,-0.0632
2614.00,-0.0632
2612.00,-0.0632
2610.00,-0.0632
2608.00,-0.0631
2606.00,-0.0631
2604.00,-0.0631
2602.00,-0.0632
2600.00,-0.0632
2598.00,-0.0632
2596.00,-0.0632
2594.00,-0.0632
2592.00,-0.0633
2590.00,-0.0633
2588.00,-0.0633
2586.00,-0.0633
2584.00,-0.0633
2582.00,-0.0632
2580.00,-0.0632
2578.00,-0.0632
2576.00,-0.0632
2574.00,-0.0632
2572.00,-0.0632
2570.00,-0.0632
2568.00,-0.0632
2566.00,-0.0632
2564.00,-0.0633
2562.00,-0.0633
2560.00,-0.0633
2558.00,-0.0633
2556.00,-0.0633
2554.00,-0.0632
2552.00,-0.0632
2550.00,-0.0632
2548.00,-0.0631
2546.00,-0.0631
2544.00,-0.0631
2542.00,-0.0630
2540.00,-0.0630
2538.00,-0.0630
2536.00,-0.0630
2534.00,-0.0630
2532.00,-0.0631
2530.00,-0.0631
2528.00,-0.0631
2526.00,-0.0631
2524.00,-0.0631
2522.00,-0.0631
2520.00,-0.0631
2518.00,-0.0630
2516.00,-0.0630
2514.00,-0.0630
2512.00,-0.0630
2510.00,-0.0630
2508.00,-0.0630
2506.00,-0.0630
2504.00,-0.0630
2502.00,-0.0630
2500.00,-0.0630
2498.00,-0.0630
2496.00,-0.0631
2494.00,-0.0631
2492.00,-0.0630
2490.00,-0.0630
2488.00,-0.0630
2486.00,-0.0630
2484.00,-0.0630
2482.00,-0.0629
2480.00,-0.0629
2478.00,-0.0629
2476.00,-0.0629
2474.00,-0.0629
2472.00,-0.0630
2470.00,-0.0630
2468.00,-0.0630
2466.00,-0.0630
2464.00,-0.0630
2462.00,-0.0630
2460.00,-0.0630
2458.00,-0.0629
2456.00,-0.0629
2454.00,-0.0628
2452.00,-0.0628
2450.00,-0.0628
2448.00,-0.0628
2446.00,-0.0628
2444.00,-0.0628
2442.00,-0.0628
2440.00,-0.0628
2438.00,-0.0629
2436.00,-0.0629
2434.00,-0.0629
2432.00,-0.0629
2430.00,-0.0629
2428.00,-0.0629
2426.00,-0.0629
2424.00,-0.0629
2422.00,-0.0629
2420.00,-0.0629
2418.00,-0.0629
2416.00,-0.0629
2414.00,-0.0629
2412.00,-0.0629
2410.00,-0.0629
2408.00,-0.0630
2406.00,-0.0630
2404.00,-0.0630
2402.00,-0.0630
2400.00,-0.0630
2398.00,-0.0630
2396.00,-0.0630
2394.00,-0.0630
2392.00,-0.0629
2390.00,-0.0629
2388.00,-0.0628
2386.00,-0.0627
2384.00,-0.0626
2382.00,-0.0626
2380.00,-0.0628
2378.00,-0.0631
2376.00,-0.0634
2374.00,-0.0634
2372.00,-0.0632
2370.00,-0.0631
2368.00,-0.0630
2366.00,-0.0631
2364.00,-0.0631
2362.00,-0.0631
2360.00,-0.0631
2358.00,-0.0631
2356.00,-0.0631
2354.00,-0.0631
2352.00,-0.0633
2350.00,-0.0633
2348.00,-0.0629
2346.00,-0.0628
2344.00,-0.0631
2342.00,-0.0630
2340.00,-0.0630
2338.00,-0.0630
2336.00,-0.0630
2334.00,-0.0629
2332.00,-0.0629
2330.00,-0.0629
2328.00,-0.0628
2326.00,-0.0626
2324.00,-0.0625
2322.00,-0.0627
2320.00,-0.0628
2318.00,-0.0627
2316.00,-0.0626
2314.00,-0.0627
2312.00,-0.0627
2310.00,-0.0627
2308.00,-0.0627
2306.00,-0.0627
2304.00,-0.0627
2302.00,-0.0626
2300.00,-0.0626
2298.00,-0.0626
2296.00,-0.0626
2294.00,-0.0626
2292.00,-0.0627
2290.00,-0.0627
2288.00,-0.0627
2286.00,-0.0627
2284.00,-0.0627
2282.00,-0.0627
2280.00,-0.0627
2278.00,-0.0627
2276.00,-0.0627
2274.00,-0.0627
2272.00,-0.0627
2270.00,-0.0626
2268.00,-0.0626
2266.00,-0.0626
2264.00,-0.0626
2262.00,-0.0626
2260.00,-0.0626
2258.00,-0.0626
2256.00,-0.0626
2254.00,-0.0626
2252.00,-0.0626
2250.00,-0.0627
2248.00,-0.0627
2246.00,-0.0627
2244.00,-0.0627
2242.00,-0.0627
2240.00,-0.0627
2238.00,-0.0626
2236.00,-0.0626
2234.00,-0.0626
2232.00,-0.0626
2230.00,-0.0626
2228.00,-0.0626
2226.00,-0.0626
2224.00,-0.0626
2222.00,-0.0626
2220.00,-0.0626
2218.00,-0.0626
2216.00,-0.0626
2214.00,-0.0626
2212.00,-0.0626
2210.00,-0.0626
2208.00,-0.0626
2206.00,-0.0626
2204.00,-0.0626
2202.00,-0.0626
2200.00,-0.0625
2198.00,-0.0625
2196.00,-0.0625
2194.00,-0.0625
2192.00,-0.0625
2190.00,-0.0625
2188.00,-0.0625
2186.00,-0.0625
2184.00,-0.0624
2182.00,-0.0624
2180.00,-0.0624
2178.00,-0.0624
2176.00,-0.0624
2174.00,-0.0624
2172.00,-0.0624
2170.00,-0.0624
2168.00,-0.0624
2166.00,-0.0624
2164.00,-0.0624
2162.00,-0.0624
2160.00,-0.0625
2158.00,-0.0625
2156.00,-0.0625
2154.00,-0.0625
2152.00,-0.0625
2150.00,-0.0625
2148.00,-0.0625
2146.00,-0.0625
2144.00,-0.0625
2142.00,-0.0625
2140.00,-0.0624
2138.00,-0.0624
2136.00,-0.0624
2134.00,-0.0624
2132.00,-0.0624
2130.00,-0.0624
2128.00,-0.0624
2126.00,-0.0624
2124.00,-0.0624
2122.00,-0.0625
2120.00,-0.0625
2118.00,-0.0625
2116.00,-0.0625
2114.00,-0.0624
2112.00,-0.0624
2110.00,-0.0624
2108.00,-0.0624
2106.00,-0.0623
2104.00,-0.0623
2102.00,-0.0623
2100.00,-0.0623
2098.00,-0.0623
2096.00,-0.0623
2094.00,-0.0623
2092.00,-0.0623
2090.00,-0.0624
2088.00,-0.0624
2086.00,-0.0624
2084.00,-0.0624
2082.00,-0.0624
2080.00,-0.0623
2078.00,-0.0623
2076.00,-0.0623
2074.00,-0.0623
2072.00,-0.0623
2070.00,-0.0623
2068.00,-0.0623
2066.00,-0.0623
2064.00,-0.0624
2062.00,-0.0624
2060.00,-0.0624
2058.00,-0.0624
2056.00,-0.0624
2054.00,-0.0624
2052.00,-0.0624
2050.00,-0.0624
2048.00,-0.0624
2046.00,-0.0623
2044.00,-0.0623
2042.00,-0.0623
2040.00,-0.0623
2038.00,-0.0624
2036.00,-0.0624
2034.00,-0.0624
2032.00,-0.0624
2030.00,-0.0624
2028.00,-0.0624
2026.00,-0.0624
2024.00,-0.0624
2022.00,-0.0624
2020.00,-0.0624
2018.00,-0.0623
2016.00,-0.0623
2014.00,-0.0623
2012.00,-0.0622
2010.00,-0.0622
2008.00,-0.0622
2006.00,-0.0622
2004.00,-0.0622
2002.00,-0.0623
2000.00,-0.0623
1998.00,-0.0623
1996.00,-0.0623
1994.00,-0.0623
1992.00,-0.0624
1990.00,-0.0624
1988.00,-0.0624
1986.00,-0.0624
1984.00,-0.0624
1982.00,-0.0624
1980.00,-0.0624
1978.00,-0.0624
1976.00,-0.0624
1974.00,-0.0624
1972.00,-0.0624
1970.00,-0.0624
1968.00,-0.0624
1966.00,-0.0624
1964.00,-0.0624
1962.00,-0.0625
1960.00,-0.0625
1958.00,-0.0625
1956.00,-0.0624
1954.00,-0.0625
1952.00,-0.0625
1950.00,-0.0625
1948.00,-0.0625
1946.00,-0.0624
1944.00,-0.0624
1942.00,-0.0625
1940.00,-0.0625
1938.00,-0.0624
1936.00,-0.0624
1934.00,-0.0624
1932.00,-0.0624
1930.00,-0.0623
1928.00,-0.0623
1926.00,-0.0623
1924.00,-0.0622
1922.00,-0.0622
1920.00,-0.0622
1918.00,-0.0622
1916.00,-0.0622
1914.00,-0.0622
1912.00,-0.0622
1910.00,-0.0622
1908.00,-0.0622
1906.00,-0.0623
1904.00,-0.0623
1902.00,-0.0623
1900.00,-0.0623
1898.00,-0.0623
1896.00,-0.0623
1894.00,-0.0623
1892.00,-0.0623
1890.00,-0.0623
1888.00,-0.0623
1886.00,-0.0623
1884.00,-0.0623
1882.00,-0.0623
1880.00,-0.0624
1878.00,-0.0624
1876.00,-0.0624
1874.00,-0.0624
1872.00,-0.0625
1870.00,-0.0624
1868.00,-0.0625
1866.00,-0.0625
1864.00,-0.0625
1862.00,-0.0625
1860.00,-0.0624
1858.00,-0.0624
1856.00,-0.0624
1854.00,-0.0625
1852.00,-0.0625
1850.00,-0.0625
1848.00,-0.0625
1846.00,-0.0625
1844.00,-0.0625
1842.00,-0.0625
1840.00,-0.0625
1838.00,-0.0625
1836.00,-0.0625
1834.00,-0.0625
1832.00,-0.0625
1830.00,-0.0625
1828.00,-0.0625
1826.00,-0.0624
1824.00,-0.0624
1822.00,-0.0625
1820.00,-0.0625
1818.00,-0.0625
1816.00,-0.0625
1814.00,-0.0626
1812.00,-0.0626
1810.00,-0.0626
1808.00,-0.0626
1806.00,-0.0627
1804.00,-0.0626
1802.00,-0.0627
1800.00,-0.0627
1798.00,-0.0627
1796.00,-0.0627
1794.00,-0.0624
1792.00,-0.0617
1790.00,-0.0623
1788.00,-0.0629
1786.00,-0.0630
1784.00,-0.0629
1782.00,-0.0627
1780.00,-0.0628
1778.00,-0.0628
1776.00,-0.0628
1774.00,-0.0628
1772.00,-0.0628
1770.00,-0.0628
1768.00,-0.0628
1766.00,-0.0628
1764.00,-0.0627
1762.00,-0.0627
1760.00,-0.0627
1758.00,-0.0626
1756.00,-0.0627
1754.00,-0.0626
1752.00,-0.0626
1750.00,-0.0626
1748.00,-0.0627
1746.00,-0.0627
1744.00,-0.0627
1742.00,-0.0627
1740.00,-0.0627
1738.00,-0.0627
1736.00,-0.0627
1734.00,-0.0626
1732.00,-0.0627
1730.00,-0.0626
1728.00,-0.0627
1726.00,-0.0627
1724.00,-0.0627
1722.00,-0.0627
1720.00,-0.0627
1718.00,-0.0627
1716.00,-0.0627
1714.00,-0.0628
1712.00,-0.0628
1710.00,-0.0628
1708.00,-0.0628
1706.00,-0.0628
1704.00,-0.0628
1702.00,-0.0628
1700.00,-0.0627
1698.00,-0.0627
1696.00,-0.0627
1694.00,-0.0628
1692.00,-0.0627
1690.00,-0.0627
1688.00,-0.0628
1686.00,-0.0628
1684.00,-0.0628
1682.00,-0.0628
1680.00,-0.0628
1678.00,-0.0628
1676.00,-0.0627
1674.00,-0.0627
1672.00,-0.0627
1670.00,-0.0626
1668.00,-0.0627
1666.00,-0.0626
1664.00,-0.0626
1662.00,-0.0626
1660.00,-0.0627
1658.00,-0.0626
1656.00,-0.0627
1654.00,-0.0627
1652.00,-0.0628
1650.00,-0.0627
1648.00,-0.0627
1646.00,-0.0627
1644.00,-0.0627
1642.00,-0.0627
1640.00,-0.0627
1638.00,-0.0627
1636.00,-0.0627
1634.00,-0.0628
1632.00,-0.0627
1630.00,-0.0627
1628.00,-0.0627
1626.00,-0.0628
1624.00,-0.0628
1622.00,-0.0628
1620.00,-0.0628
1618.00,-0.0628
1616.00,-0.0628
1614.00,-0.0627
1612.00,-0.0627
1610.00,-0.0627
1608.00,-0.0627
1606.00,-0.0627
1604.00,-0.0627
1602.00,-0.0627
1600.00,-0.0627
1598.00,-0.0627
1596.00,-0.0627
1594.00,-0.0627
1592.00,-0.0627
1590.00,-0.0627
1588.00,-0.0627
1586.00,-0.0627
1584.00,-0.0627
1582.00,-0.0627
1580.00,-0.0628
1578.00,-0.0627
1576.00,-0.0627
1574.00,-0.0627
1572.00,-0.0627
1570.00,-0.0627
1568.00,-0.0627
1566.00,-0.0627
1564.00,-0.0627
1562.00,-0.0627
1560.00,-0.0627
1558.00,-0.0627
1556.00,-0.0627
1554.00,-0.0627
1552.00,-0.0627
1550.00,-0.0627
1548.00,-0.0628
1546.00,-0.0628
1544.00,-0.0628
1542.00,-0.0628
1540.00,-0.0628
1538.00,-0.0629
1536.00,-0.0628
1534.00,-0.0628
1532.00,-0.0628
1530.00,-0.0628
1528.00,-0.0628
1526.00,-0.0628
1524.00,-0.0628
1522.00,-0.0628
1520.00,-0.0627
1518.00,-0.0627
1516.00,-0.0627
1514.00,-0.0626
1512.00,-0.0626
1510.00,-0.0625
1508.00,-0.0625
1506.00,-0.0626
1504.00,-0.0625
1502.00,-0.0624
1500.00,-0.0624
1498.00,-0.0623
1496.00,-0.0621
1494.00,-0.0621
1492.00,-0.0621
1490.00,-0.0622
1488.00,-0.0623
1486.00,-0.0624
1484.00,-0.0624
1482.00,-0.0624
1480.00,-0.0624
1478.00,-0.0624
1476.00,-0.0624
1474.00,-0.0624
1472.00,-0.0624
1470.00,-0.0624
1468.00,-0.0624
1466.00,-0.0625
1464.00,-0.0625
1462.00,-0.0624
1460.00,-0.0624
1458.00,-0.0624
1456.00,-0.0622
1454.00,-0.0620
1452.00,-0.0620
1450.00,-0.0620
1448.00,-0.0621
1446.00,-0.0622
1444.00,-0.0622
1442.00,-0.0622
1440.00,-0.0623
1438.00,-0.0622
1436.00,-0.0622
1434.00,-0.0622
1432.00,-0.0622
1430.00,-0.0622
1428.00,-0.0622
1426.00,-0.0621
1424.00,-0.0621
1422.00,-0.0620
1420.00,-0.0618
1418.00,-0.0617
1416.00,-0.0615
1414.00,-0.0613
1412.00,-0.0611
1410.00,-0.0610
1408.00,-0.0608
1406.00,-0.0608
1404.00,-0.0608
1402.00,-0.0610
1400.00,-0.0611
1398.00,-0.0612
1396.00,-0.0609
1394.00,-0.0607
1392.00,-0.0610
1390.00,-0.0613
1388.00,-0.0614
1386.00,-0.0613
1384.00,-0.0612
1382.00,-0.0612
1380.00,-0.0612
1378.00,-0.0613
1376.00,-0.0614
1374.00,-0.0616
1372.00,-0.0618
1370.00,-0.0619
1368.00,-0.0620
1366.00,-0.0621
1364.00,-0.0621
1362.00,-0.0622
1360.00,-0.0623
1358.00,-0.0623
1356.00,-0.0623
1354.00,-0.0624
1352.00,-0.0624
1350.00,-0.0624
1348.00,-0.0625
1346.00,-0.0625
1344.00,-0.0625
1342.00,-0.0625
1340.00,-0.0625
1338.00,-0.0626
1336.00,-0.0626
1334.00,-0.0626
1332.00,-0.0626
1330.00,-0.0626
1328.00,-0.0626
1326.00,-0.0626
1324.00,-0.0626
1322.00,-0.0626
1320.00,-0.0626
1318.00,-0.0626
1316.00,-0.0626
1314.00,-0.0627
1312.00,-0.0627
1310.00,-0.0627
1308.00,-0.0627
1306.00,-0.0627
1304.00,-0.0627
1302.00,-0.0627
1300.00,-0.0627
1298.00,-0.0627
1296.00,-0.0626
1294.00,-0.0626
1292.00,-0.0626
1290.00,-0.0626
1288.00,-0.0625
1286.00,-0.0625
1284.00,-0.0625
1282.00,-0.0624
1280.00,-0.0624
1278.00,-0.0624
1276.00,-0.0623
1274.00,-0.0623
1272.00,-0.0622
1270.00,-0.0621
1268.00,-0.0619
1266.00,-0.0618
1264.00,-0.0616
1262.00,-0.0614
1260.00,-0.0613
1258.00,-0.0613
1256.00,-0.0613
1254.00,-0.0613
1252.00,-0.0613
1250.00,-0.0613
1248.00,-0.0614
1246.00,-0.0616
1244.00,-0.0616
1242.00,-0.0615
1240.00,-0.0616
1238.00,-0.0618
1236.00,-0.0617
1234.00,-0.0616
1232.00,-0.0615
1230.00,-0.0615
1228.00,-0.0615
1226.00,-0.0615
1224.00,-0.0616
1222.00,-0.0617
1220.00,-0.0618
1218.00,-0.0619
1216.00,-0.0620
1214.00,-0.0621
1212.00,-0.0621
1210.00,-0.0622
1208.00,-0.0623
1206.00,-0.0623
1204.00,-0.0623
1202.00,-0.0624
1200.00,-0.0624
1198.00,-0.0624
1196.00,-0.0624
1194.00,-0.0624
1192.00,-0.0625
1190.00,-0.0625
1188.00,-0.0625
1186.00,-0.0626
1184.00,-0.0626
1182.00,-0.0627
1180.00,-0.0627
1178.00,-0.0626
1176.00,-0.0627
1174.00,-0.0626
1172.00,-0.0627
1170.00,-0.0627
1168.00,-0.0627
1166.00,-0.0626
1164.00,-0.0626
1162.00,-0.0626
1160.00,-0.0626
1158.00,-0.0626
1156.00,-0.0626
1154.00,-0.0626
1152.00,-0.0626
1150.00,-0.0626
1148.00,-0.0626
1146.00,-0.0626
1144.00,-0.0626
1142.00,-0.0625
1140.00,-0.0625
1138.00,-0.0625
1136.00,-0.0625
1134.00,-0.0624
1132.00,-0.0624
1130.00,-0.0624
1128.00,-0.0623
1126.00,-0.0623
1124.00,-0.0623
1122.00,-0.0622
1120.00,-0.0621
1118.00,-0.0620
1116.00,-0.0619
1114.00,-0.0618
1112.00,-0.0616
1110.00,-0.0614
1108.00,-0.0612
1106.00,-0.0610
1104.00,-0.0609
1102.00,-0.0608
1100.00,-0.0607
1098.00,-0.0607
1096.00,-0.0606
1094.00,-0.0605
1092.00,-0.0602
1090.00,-0.0598
1088.00,-0.0594
1086.00,-0.0590
1084.00,-0.0586
1082.00,-0.0582
1080.00,-0.0578
1078.00,-0.0575
1076.00,-0.0573
1074.00,-0.0573
1072.00,-0.0575
1070.00,-0.0575
1068.00,-0.0570
1066.00,-0.0566
1064.00,-0.0571
1062.00,-0.0575
1060.00,-0.0574
1058.00,-0.0570
1056.00,-0.0569
1054.00,-0.0570
1052.00,-0.0569
1050.00,-0.0569
1048.00,-0.0571
1046.00,-0.0574
1044.00,-0.0577
1042.00,-0.0580
1040.00,-0.0583
1038.00,-0.0585
1036.00,-0.0589
1034.00,-0.0593
1032.00,-0.0597
1030.00,-0.0599
1028.00,-0.0598
1026.00,-0.0601
1024.00,-0.0606
1022.00,-0.0607
1020.00,-0.0608
1018.00,-0.0609
1016.00,-0.0610
1014.00,-0.0611
1012.00,-0.0613
1010.00,-0.0616
1008.00,-0.0618
1006.00,-0.0619
1004.00,-0.0621
1002.00,-0.0623
1000.00,-0.0625
998.00,-0.0626
996.00,-0.0628
994.00,-0.0629
992.00,-0.0630
990.00,-0.0630
988.00,-0.0631
986.00,-0.0631
984.00,-0.0632
982.00,-0.0633
980.00,-0.0633
978.00,-0.0633
976.00,-0.0634
974.00,-0.0634
972.00,-0.0634
970.00,-0.0635
968.00,-0.0635
966.00,-0.0636
964.00,-0.0636
962.00,-0.0636
960.00,-0.0636
958.00,-0.0636
956.00,-0.0637
954.00,-0.0636
952.00,-0.0637
950.00,-0.0637
948.00,-0.0637
946.00,-0.0637
944.00,-0.0637
942.00,-0.0637
940.00,-0.0637
938.00,-0.0638
936.00,-0.0638
934.00,-0.0638
932.00,-0.0638
930.00,-0.0638
928.00,-0.0638
926.00,-0.0638
924.00,-0.0638
922.00,-0.0638
920.00,-0.0637
918.00,-0.0637
916.00,-0.0637
914.00,-0.0636
912.00,-0.0635
910.00,-0.0634
908.00,-0.0634
906.00,-0.0633
904.00,-0.0632
902.00,-0.0631
900.00,-0.0630
898.00,-0.0630
896.00,-0.0630
894.00,-0.0630
892.00,-0.0630
890.00,-0.0630
888.00,-0.0631
886.00,-0.0631
884.00,-0.0630
882.00,-0.0629
880.00,-0.0628
878.00,-0.0628
876.00,-0.0630
874.00,-0.0630
872.00,-0.0629
870.00,-0.0630
868.00,-0.0631
866.00,-0.0631
864.00,-0.0632
862.00,-0.0633
860.00,-0.0633
858.00,-0.0634
856.00,-0.0635
854.00,-0.0635
852.00,-0.0636
850.00,-0.0636
848.00,-0.0636
846.00,-0.0636
844.00,-0.0637
842.00,-0.0637
840.00,-0.0637
838.00,-0.0637
836.00,-0.0636
834.00,-0.0636
832.00,-0.0635
830.00,-0.0634
828.00,-0.0633
826.00,-0.0632
824.00,-0.0632
822.00,-0.0632
820.00,-0.0633
818.00,-0.0633
816.00,-0.0634
814.00,-0.0634
812.00,-0.0634
810.00,-0.0634
808.00,-0.0634
806.00,-0.0634
804.00,-0.0634
802.00,-0.0635
800.00,-0.0635
798.00,-0.0635
796.00,-0.0635
794.00,-0.0635
792.00,-0.0636
790.00,-0.0636
788.00,-0.0637
786.00,-0.0637
784.00,-0.0637
782.00,-0.0638
780.00,-0.0638
778.00,-0.0638
776.00,-0.0638
774.00,-0.0638
772.00,-0.0638
770.00,-0.0638
768.00,-0.0638
766.00,-0.0638
764.00,-0.0638
762.00,-0.0638
760.00,-0.0637
758.00,-0.0637
756.00,-0.0638
754.00,-0.0638
752.00,-0.0638
750.00,-0.0638
748.00,-0.0638
746.00,-0.0637
744.00,-0.0637
742.00,-0.0637
740.00,-0.0637
738.00,-0.0637
736.00,-0.0637
734.00,-0.0637
732.00,-0.0637
730.00,-0.0637
728.00,-0.0637
726.00,-0.0637
724.00,-0.0637
722.00,-0.0637
720.00,-0.0638
718.00,-0.0637
716.00,-0.0637
714.00,-0.0637
712.00,-0.0637
710.00,-0.0637
708.00,-0.0637
706.00,-0.0637
704.00,-0.0637
702.00,-0.0636
700.00,-0.0637
698.00,-0.0637
696.00,-0.0637
694.00,-0.0637
692.00,-0.0637
690.00,-0.0636
688.00,-0.0636
686.00,-0.0637
684.00,-0.0638
682.00,-0.0639
680.00,-0.0639
678.00,-0.0640
676.00,-0.0640
674.00,-0.0638
672.00,-0.0640
670.00,-0.0651
668.00,-0.0669
666.00,-0.0652
664.00,-0.0640
662.00,-0.0636
660.00,-0.0637
658.00,-0.0638
656.00,-0.0638
654.00,-0.0638
652.00,-0.0637
650.00,-0.0637
648.00,-0.0637
646.00,-0.0637
644.00,-0.0637
642.00,-0.0636
640.00,-0.0635
638.00,-0.0635
636.00,-0.0634
634.00,-0.0634
632.00,-0.0634
630.00,-0.0634
628.00,-0.0635
626.00,-0.0635
624.00,-0.0634
622.00,-0.0634
620.00,-0.0634
618.00,-0.0634
616.00,-0.0634
614.00,-0.0634
612.00,-0.0633
610.00,-0.0634
608.00,-0.0633
606.00,-0.0634
604.00,-0.0634
602.00,-0.0633
600.00,-0.0633
598.00,-0.0632
596.00,-0.0632
594.00,-0.0634
592.00,-0.0634
590.00,-0.0635
588.00,-0.0635
586.00,-0.0635
584.00,-0.0636
582.00,-0.0636
580.00,-0.0635
578.00,-0.0635
576.00,-0.0635
574.00,-0.0636
572.00,-0.0636
570.00,-0.0635
568.00,-0.0636
566.00,-0.0636
564.00,-0.0635
562.00,-0.0635
560.00,-0.0635
558.00,-0.0636
556.00,-0.0636
554.00,-0.0636
552.00,-0.0637
550.00,-0.0636
548.00,-0.0634
546.00,-0.0636
544.00,-0.0635
542.00,-0.0635
540.00,-0.0636
538.00,-0.0636
536.00,-0.0638
534.00,-0.0639
532.00,-0.0637
530.00,-0.0639
528.00,-0.0638
526.00,-0.0637
524.00,-0.0638
522.00,-0.0638
520.00,-0.0638
518.00,-0.0639
516.00,-0.0637
514.00,-0.0639
512.00,-0.0640
510.00,-0.0638
508.00,-0.0638
506.00,-0.0637
504.00,-0.0637
502.00,-0.0639
500.00,-0.0637
