Created as New Dataset,Sample 033 By Analyst Date Wednesday, April 02 2025
cm-1,A
4000.00,-0.0638
3998.00,-0.0638
3996.00,-0.0637
3994.00,-0.0637
3992.00,-0.0637
3990.00,-0.0637
3988.00,-0.0637
3986.00,-0.0636
3984.00,-0.0636
3982.00,-0.0636
3980.00,-0.0637
3978.00,-0.0637
3976.00,-0.0637
3974.00,-0.0637
3972.00,-0.0637
3970.00,-0.0637
3968.00,-0.0638
3966.00,-0.0638
3964.00,-0.0637
3962.00,-0.0637
3960.00,-0.0637
3958.00,-0.0637
3956.00,-0.0637
3954.00,-0.0637
3952.00,-0.0637
3950.00,-0.0637
3948.00,-0.0637
3946.00,-0.0637
3944.00,-0.0637
3942.00,-0.0638
3940.00,-0.0638
3938.00,-0.0638
3936.00,-0.0638
3934.00,-0.0638
3932.00,-0.0638
3930.00,-0.0638
3928.00,-0.0637
3926.00,-0.0637
3924.00,-0.0637
3922.00,-0.0637
3920.00,-0.0637
3918.00,-0.0636
3916.00,-0.0636
3914.00,-0.0636
3912.00,-0.0636
3910.00,-0.0636
3908.00,-0.0637
3906.00,-0.0637
3904.00,-0.0637
3902.00,-0.0637
3900.00,-0.0635
3898.00,-0.0635
3896.00,-0.0636
3894.00,-0.0635
3892.00,-0.0635
3890.00,-0.0636
3888.00,-0.0636
3886.00,-0.0635
3884.00,-0.0636
3882.00,-0.0636
3880.00,-0.0635
3878.00,-0.0637
3876.00,-0.0637
3874.00,-0.0637
3872.00,-0.0638
3870.00,-0.0637
3868.00,-0.0638
3866.00,-0.0636
3864.00,-0.0635
3862.00,-0.0636
3860.00,-0.0636
3858.00,-0.0638
3856.00,-0.0640
3854.00,-0.0638
3852.00,-0.0638
3850.00,-0.0638
3848.00,-0.0636
3846.00,-0.0637
3844.00,-0.0637
3842.00,-0.0639
3840.00,-0.0639
3838.00,-0.0638
3836.00,-0.0638
3834.00,-0.0637
3832.00,-0.0636
3830.00,-0.0636
3828.00,-0.0635
3826.00,-0.0636
3824.00,-0.0637
3822.00,-0.0636
3820.00,-0.0637
3818.00,-0.0638
3816.00,-0.0635
3814.00,-0.0636
3812.00,-0.0636
3810.00,-0.0636
3808.00,-0.0636
3806.00,-0.0636
3804.00,-0.0637
3802.00,-0.0635
3800.00,-0.0636
3798.00,-0.0635
3796.00,-0.0634
3794.00,-0.0634
3792.00,-0.0634
3790.00,-0.0634
3788.00,-0.0635
3786.00,-0.0635
3784.00,-0.0636
3782.00,-0.0636
3780.00,-0.0635
3778.00,-0.0636
3776.00,-0.0636
3774.00,-0.0636
3772.00,-0.0636
3770.00,-0.0635
3768.00,-0.0636
3766.00,-0.0635
3764.00,-0.0635
3762.00,-0.0636
3760.00,-0.0635
3758.00,-0.0636
3756.00,-0.0638
3754.00,-0.0639
3752.00,-0.0639
3750.00,-0.0638
3748.00,-0.0640
3746.00,-0.0637
3744.00,-0.0635
3742.00,-0.0637
3740.00,-0.0636
3738.00,-0.0635
3736.00,-0.0635
3734.00,-0.0636
3732.00,-0.0635
3730.00,-0.0635
3728.00,-0.0634
3726.00,-0.0633
3724.00,-0.0634
3722.00,-0.0634
3720.00,-0.0634
3718.00,-0.0633
3716.00,-0.0634
3714.00,-0.0634
3712.00,-0.0632
3710.00,-0.0632
3708.00,-0.0631
3706.00,-0.0631
3704.00,-0.0630
3702.00,-0.0629
3700.00,-0.0629
3698.00,-0.0628
3696.00,-0.0627
3694.00,-0.0628
3692.00,-0.0628
3690.00,-0.0628
3688.00,-0.0628
3686.00,-0.0627
3684.00,-0.0626
3682.00,-0.0626
3680.00,-0.0627
3678.00,-0.0627
3676.00,-0.0624
3674.00,-0.0626
3672.00,-0.0626
3670.00,-0.0623
3668.00,-0.0624
3666.00,-0.0624
3664.00,-0.0623
3662.00,-0.0624
3660.00,-0.0625
3658.00,-0.0626
3656.00,-0.0627
3654.00,-0.0629
3652.00,-0.0630
3650.00,-0.0629
3648.00,-0.0629
3646.00,-0.0630
3644.00,-0.0629
3642.00,-0.0629
3640.00,-0.0629
3638.00,-0.0630
3636.00,-0.0631
3634.00,-0.0632
3632.00,-0.0634
3630.00,-0.0633
3628.00,-0.0632
3626.00,-0.0634
3624.00,-0.0634
3622.00,-0.0635
3620.00,-0.0635
3618.00,-0.0635
3616.00,-0.0635
3614.00,-0.0634
3612.00,-0.0634
3610.00,-0.0634
3608.00,-0.0633
3606.00,-0.0634
3604.00,-0.0634
3602.00,-0.0635
3600.00,-0.0635
3598.00,-0.0636
3596.00,-0.0636
3594.00,-0.0636
3592.00,-0.0637
3590.00,-0.0637
3588.00,-0.0636
3586.00,-0.0636
3584.00,-0.0636
3582.00,-0.0635
3580.00,-0.0635
3578.00,-0.0635
3576.00,-0.0635
3574.00,-0.0636
3572.00,-0.0636
3570.00,-0.0637
3568.00,-0.0636
3566.00,-0.0636
3564.00,-0.0637
3562.00,-0.0637
3560.00,-0.0637
3558.00,-0.0637
3556.00,-0.0637
3554.00,-0.0637
3552.00,-0.0636
3550.00,-0.0636
3548.00,-0.0636
3546.00,-0.0635
3544.00,-0.0635
3542.00,-0.0635
3540.00,-0.0635
3538.00,-0.0635
3536.00,-0.0635
3534.00,-0.0636
3532.00,-0.0636
3530.00,-0.0636
3528.00,-0.0636
3526.00,-0.0636
3524.00,-0.0636
3522.00,-0.0636
3520.00,-0.0636
3518.00,-0.0635
3516.00,-0.0635
3514.00,-0.0636
3512.00,-0.0636
3510.00,-0.0636
3508.00,-0.0636
3506.00,-0.0636
3504.00,-0.0636
3502.00,-0.0637
3500.00,-0.0637
3498.00,-0.0637
3496.00,-0.0637
3494.00,-0.0637
3492.00,-0.0637
3490.00,-0.0637
3488.00,-0.0637
3486.00,-0.0637
3484.00,-0.0637
3482.00,-0.0636
3480.00,-0.0637
3478.00,-0.0637
3476.00,-0.0637
3474.00,-0.0637
3472.00,-0.0638
3470.00,-0.0638
3468.00,-0.0638
3466.00,-0.0638
3464.00,-0.0638
3462.00,-0.0638
3460.00,-0.0638
3458.00,-0.0637
3456.00,-0.0637
3454.00,-0.0637
3452.00,-0.0637
3450.00,-0.0636
3448.00,-0.0636
3446.00,-0.0636
3444.00,-0.0637
3442.00,-0.0637
3440.00,-0.0637
3438.00,-0.0637
3436.00,-0.0637
3434.00,-0.0637
3432.00,-0.0637
3430.00,-0.0637
3428.00,-0.0637
3426.00,-0.0637
3424.00,-0.0637
3422.00,-0.0636
3420.00,-0.0636
3418.00,-0.0636
3416.00,-0.0637
3414.00,-0.0637
3412.00,-0.0637
3410.00,-0.0637
3408.00,-0.0637
3406.00,-0.0637
3404.00,-0.0637
3402.00,-0.0637
3400.00,-0.0637
3398.00,-0.0637
3396.00,-0.0637
3394.00,-0.0636
3392.00,-0.0636
3390.00,-0.0636
3388.00,-0.0636
3386.00,-0.0636
3384.00,-0.0636
3382.00,-0.0636
3380.00,-0.0637
3378.00,-0.0637
3376.00,-0.0637
3374.00,-0.0637
3372.00,-0.0637
3370.00,-0.0637
3368.00,-0.0636
3366.00,-0.0636
3364.00,-0.0636
3362.00,-0.0635
3360.00,-0.0635
3358.00,-0.0635
3356.00,-0.0635
3354.00,-0.0635
3352.00,-0.0635
3350.00,-0.0635
3348.00,-0.0635
3346.00,-0.0635
3344.00,-0.0636
3342.00,-0.0636
3340.00,-0.0636
3338.00,-0.0636
3336.00,-0.0636
3334.00,-0.0636
3332.00,-0.0636
3330.00,-0.0636
3328.00,-0.0635
3326.00,-0.0635
3324.00,-0.0635
3322.00,-0.0636
3320.00,-0.0636
3318.00,-0.0636
3316.00,-0.0637
3314.00,-0.0637
3312.00,-0.0637
3310.00,-0.0637
3308.00,-0.0637
3306.00,-0.0638
3304.00,-0.0637
3302.00,-0.0637
3300.00,-0.0637
3298.00,-0.0637
3296.00,-0.0637
3294.00,-0.0637
3292.00,-0.0637
3290.00,-0.0637
3288.00,-0.0637
3286.00,-0.0637
3284.00,-0.0637
3282.00,-0.0637
3280.00,-0.0637
3278.00,-0.0637
3276.00,-0.0637
3274.00,-0.0636
3272.00,-0.0636
3270.00,-0.0635
3268.00,-0.0635
3266.00,-0.0634
3264.00,-0.0634
3262.00,-0.0634
3260.00,-0.0634
3258.00,-0.0634
3256.00,-0.0635
3254.00,-0.0635
3252.00,-0.0635
3250.00,-0.0635
3248.00,-0.0635
3246.00,-0.0635
3244.00,-0.0635
3242.00,-0.0635
3240.00,-0.0635
3238.00,-0.0635
3236.00,-0.0635
3234.00,-0.0635
3232.00,-0.0635
3230.00,-0.0635
3228.00,-0.0635
3226.00,-0.0635
3224.00,-0.0636
3222.00,-0.0636
3220.00,-0.0636
3218.00,-0.0636
3216.00,-0.0636
3214.00,-0.0637
3212.00,-0.0637
3210.00,-0.0636
3208.00,-0.0636
3206.00,-0.0636
3204.00,-0.0636
3202.00,-0.0636
3200.00,-0.0636
3198.00,-0.0636
3196.00,-0.0636
3194.00,-0.0637
3192.00,-0.0637
3190.00,-0.0637
3188.00,-0.0637
3186.00,-0.0637
3184.00,-0.0637
3182.00,-0.0637
3180.00,-0.0636
3178.00,-0.0636
3176.00,-0.0636
3174.00,-0.0635
3172.00,-0.0635
3170.00,-0.0635
3168.00,-0.0635
3166.00,-0.0635
3164.00,-0.0635
3162.00,-0.0635
3160.00,-0.0635
3158.00,-0.0636
3156.00,-0.0636
3154.00,-0.0636
3152.00,-0.0636
3150.00,-0.0636
3148.00,-0.0636
3146.00,-0.0636
3144.00,-0.0636
3142.00,-0.0636
3140.00,-0.0636
3138.00,-0.0636
3136.00,-0.0636
3134.00,-0.0636
3132.00,-0.0636
3130.00,-0.0636
3128.00,-0.0637
3126.00,-0.0637
3124.00,-0.0637
3122.00,-0.0637
3120.00,-0.0637
3118.00,-0.0637
3116.00,-0.0637
3114.00,-0.0637
3112.00,-0.0637
3110.00,-0.0637
3108.00,-0.0637
3106.00,-0.0637
3104.00,-0.0637
3102.00,-0.0637
3100.00,-0.0637
3098.00,-0.0637
3096.00,-0.0637
3094.00,-0.0637
3092.00,-0.0638
3090.00,-0.0637
3088.00,-0.0637
3086.00,-0.0637
3084.00,-0.0637
3082.00,-0.0636
3080.00,-0.0636
3078.00,-0.0636
3076.00,-0.0636
3074.00,-0.0636
3072.00,-0.0636
3070.00,-0.0636
3068.00,-0.0636
3066.00,-0.0636
3064.00,-0.0636
3062.00,-0.0637
3060.00,-0.0637
3058.00,-0.0637
3056.00,-0.0636
3054.00,-0.0636
3052.00,-0.0636
3050.00,-0.0636
3048.00,-0.0635
3046.00,-0.0635
3044.00,-0.0634
3042.00,-0.0634
3040.00,-0.0633
3038.00,-0.0633
3036.00,-0.0633
3034.00,-0.0632
3032.00,-0.0631
3030.00,-0.0630
3028.00,-0.0629
3026.00,-0.0628
3024.00,-0.0626
3022.00,-0.0624
3020.00,-0.0622
3018.00,-0.0620
3016.00,-0.0618
3014.00,-0.0616
3012.00,-0.0614
3010.00,-0.0612
3008.00,-0.0610
3006.00,-0.0607
3004.00,-0.0605
3002.00,-0.0603
3000.00,-0.0601
2998.00,-0.0598
2996.00,-0.0597
2994.00,-0.0595
2992.00,-0.0591
2990.00,-0.0587
2988.00,-0.0585
2986.00,-0.0585
2984.00,-0.0586
2982.00,-0.0587
2980.00,-0.0586
2978.00,-0.0586
2976.00,-0.0586
2974.00,-0.0586
2972.00,-0.0586
2970.00,-0.0587
2968.00,-0.0588
2966.00,-0.0590
2964.00,-0.0592
2962.00,-0.0593
2960.00,-0.0594
2958.00,-0.0595
2956.00,-0.0596
2954.00,-0.0597
2952.00,-0.0598
2950.00,-0.0600
2948.00,-0.0601
2946.00,-0.0601
2944.00,-0.0601
2942.00,-0.0602
2940.00,-0.0603
2938.00,-0.0603
2936.00,-0.0603
2934.00,-0.0603
2932.00,-0.0603
2930.00,-0.0603
2928.00,-0.0602
2926.00,-0.0601
2924.00,-0.0600
2922.00,-0.0600
2920.00,-0.0600
2918.00,-0.0600
2916.00,-0.0599
2914.00,-0.0599
2912.00,-0.0598
2910.00,-0.0597
2908.00,-0.0597
2906.00,-0.0597
2904.00,-0.0595
2902.00,-0.0593
2900.00,-0.0594
2898.00,-0.0597
2896.00,-0.0598
2894.00,-0.0598
2892.00,-0.0599
2890.00,-0.0599
2888.00,-0.0600
2886.00,-0.0600
2884.00,-0.0601
2882.00,-0.0602
2880.00,-0.0604
2878.00,-0.0606
2876.00,-0.0607
2874.00,-0.0609
2872.00,-0.0609
2870.00,-0.0610
2868.00,-0.0611
2866.00,-0.0612
2864.00,-0.0613
2862.00,-0.0615
2860.00,-0.0616
2858.00,-0.0617
2856.00,-0.0619
2854.00,-0.0620
2852.00,-0.0622
2850.00,-0.0623
2848.00,-0.0624
2846.00,-0.0625
2844.00,-0.0626
2842.00,-0.0627
2840.00,-0.0627
2838.00,-0.0628
2836.00,-0.0628
2834.00,-0.0629
2832.00,-0.0629
2830.00,-0.0629
2828.00,-0.0629
2826.00,-0.0629
2824.00,-0.0629
2822.00,-0.0629
2820.00,-0.0630
2818.00,-0.0630
2816.00,-0.0630
2814.00,-0.0630
2812.00,-0.0630
2810.00,-0.0631
2808.00,-0.0631
2806.00,-0.0630
2804.00,-0.0630
2802.00,-0.0630
2800.00,-0.0630
2798.00,-0.0630
2796.00,-0.0630
2794.00,-0.0630
2792.00,-0.0630
2790.00,-0.0631
2788.00,-0.0631
2786.00,-0.0631
2784.00,-0.0631
2782.00,-0.0632
2780.00,-0.0632
2778.00,-0.0632
2776.00,-0.0632
2774.00,-0.0632
2772.00,-0.0632
2770.00,-0.0632
2768.00,-0.0632
2766.00,-0.0632
2764.00,-0.0632
2762.00,-0.0632
2760.00,-0.0632
2758.00,-0.0632
2756.00,-0.0632
2754.00,-0.0633
2752.00,-0.0633
2750.00,-0.0633
2748.00,-0.0633
2746.00,-0.0633
2744.00,-0.0633
2742.00,-0.0633
2740.00,-0.0633
2738.00,-0.0633
2736.00,-0.0633
2734.00,-0.0633
2732.00,-0.0633
2730.00,-0.0632
2728.00,-0.0632
2726.00,-0.0632
2724.00,-0.0632
2722.00,-0.0632
2720.00,-0.0632
2718.00,-0.0632
2716.00,-0.0632
2714.00,-0.0632
2712.00,-0.0632
2710.00,-0.0632
2708.00,-0.0632
2706.00,-0.0632
2704.00,-0.0632
2702.00,-0.0632
2700.00,-0.0632
2698.00,-0.0632
2696.00,-0.0632
2694.00,-0.0632
2692.00,-0.0632
2690.00,-0.0633
2688.00,-0.0633
2686.00,-0.0633
2684.00,-0.0633
2682.00,-0.0633
2680.00,-0.0633
2678.00,-0.0633
2676.00,-0.0633
2674.00,-0.0633
2672.00,-0.0633
2670.00,-0.0633
2668.00,-0.0633
2666.00,-0.0632
2664.00,-0.0633
2662.00,-0.0633
2660.00,-0.0633
2658.00,-0.0633
2656.00,-0.0633
2654.00,-0.0633
2652.00,-0.0633
2650.00,-0.0633
2648.00,-0.0633
2646.00,-0.0633
2644.00,-0.0633
2642.00,-0.0632
2640.00,-0.0632
2638.00,-0.0632
2636.00,-0.0631
2634.00,-0.0631
2632.00,-0.0631
2630.00,-0.0631
2628.00,-0.0632
2626.00,-0.0632
2624.00,-0.0632
2622.00,-0.0632
2620.00,-0.0632
2618.00,-0.0632
2616.00,-0.0632
2614.00,-0.0632
2612.00,-0.0632
2610.00,-0.0631
2608.00,-0.0631
2606.00,-0.0631
2604.00,-0.0631
2602.00,-0.0631
2600.00,-0.0632
2598.00,-0.0632
2596.00,-0.0632
2594.00,-0.0632
2592.00,-0.0632
2590.00,-0.0632
2588.00,-0.0632
2586.00,-0.0632
2584.00,-0.0632
2582.00,-0.0632
2580.00,-0.0632
2578.00,-0.0632
2576.00,-0.0632
2574.00,-0.0632
2572.00,-0.0632
2570.00,-0.0632
2568.00,-0.0632
2566.00,-0.0632
2564.00,-0.0632
2562.00,-0.0633
2560.00,-0.0633
2558.00,-0.0633
2556.00,-0.0633
2554.00,-0.0632
2552.00,-0.0632
2550.00,-0.0632
2548.00,-0.0631
2546.00,-0.0631
2544.00,-0.0631
2542.00,-0.0630
2540.00,-0.0630
2538.00,-0.0630
2536.00,-0.0630
2534.00,-0.0630
2532.00,-0.0630
2530.00,-0.0631
2528.00,-0.0631
2526.00,-0.0631
2524.00,-0.0631
2522.00,-0.0631
2520.00,-0.0630
2518.00,-0.0630
2516.00,-0.0630
2514.00,-0.0630
2512.00,-0.0630
2510.00,-0.0630
2508.00,-0.0630
2506.00,-0.0630
2504.00,-0.0630
2502.00,-0.0630
2500.00,-0.0630
2498.00,-0.0630
2496.00,-0.0630
2494.00,-0.0630
2492.00,-0.0630
2490.00,-0.0630
2488.00,-0.0630
2486.00,-0.0630
2484.00,-0.0629
2482.00,-0.0629
2480.00,-0.0629
2478.00,-0.0629
2476.00,-0.0629
2474.00,-0.0629
2472.00,-0.0629
2470.00,-0.0630
2468.00,-0.0630
2466.00,-0.0630
2464.00,-0.0630
2462.00,-0.0630
2460.00,-0.0629
2458.00,-0.0629
2456.00,-0.0629
2454.00,-0.0628
2452.00,-0.0628
2450.00,-0.0628
2448.00,-0.0628
2446.00,-0.0628
2444.00,-0.0628
2442.00,-0.0628
2440.00,-0.0628
2438.00,-0.0629
2436.00,-0.0629
2434.00,-0.0629
2432.00,-0.0629
2430.00,-0.0629
2428.00,-0.0629
2426.00,-0.0629
2424.00,-0.0629
2422.00,-0.0629
2420.00,-0.0629
2418.00,-0.0629
2416.00,-0.0629
2414.00,-0.0629
2412.00,-0.0629
2410.00,-0.0629
2408.00,-0.0630
2406.00,-0.0630
2404.00,-0.0630
2402.00,-0.0630
2400.00,-0.0630
2398.00,-0.0630
2396.00,-0.0629
2394.00,-0.0629
2392.00,-0.0629
2390.00,-0.0629
2388.00,-0.0628
2386.00,-0.0627
2384.00,-0.0626
2382.00,-0.0626
2380.00,-0.0628
2378.00,-0.0630
2376.00,-0.0633
2374.00,-0.0633
2372.00,-0.0632
2370.00,-0.0630
2368.00,-0.0629
2366.00,-0.0630
2364.00,-0.0630
2362.00,-0.0630
2360.00,-0.0630
2358.00,-0.0630
2356.00,-0.0630
2354.00,-0.0630
2352.00,-0.0632
2350.00,-0.0633
2348.00,-0.0630
2346.00,-0.0628
2344.00,-0.0630
2342.00,-0.0630
2340.00,-0.0630
2338.00,-0.0630
2336.00,-0.0630
2334.00,-0.0628
2332.00,-0.0628
2330.00,-0.0628
2328.00,-0.0627
2326.00,-0.0626
2324.00,-0.0625
2322.00,-0.0626
2320.00,-0.0627
2318.00,-0.0627
2316.00,-0.0626
2314.00,-0.0626
2312.00,-0.0627
2310.00,-0.0627
2308.00,-0.0627
2306.00,-0.0627
2304.00,-0.0627
2302.00,-0.0626
2300.00,-0.0626
2298.00,-0.0626
2296.00,-0.0626
2294.00,-0.0626
2292.00,-0.0626
2290.00,-0.0627
2288.00,-0.0627
2286.00,-0.0627
2284.00,-0.0627
2282.00,-0.0627
2280.00,-0.0627
2278.00,-0.0627
2276.00,-0.0627
2274.00,-0.0627
2272.00,-0.0627
2270.00,-0.0626
2268.00,-0.0626
2266.00,-0.0626
2264.00,-0.0626
2262.00,-0.0626
2260.00,-0.0626
2258.00,-0.0626
2256.00,-0.0626
2254.00,-0.0626
2252.00,-0.0626
2250.00,-0.0626
2248.00,-0.0627
2246.00,-0.0627
2244.00,-0.0627
2242.00,-0.0627
2240.00,-0.0627
2238.00,-0.0626
2236.00,-0.0626
2234.00,-0.0626
2232.00,-0.0626
2230.00,-0.0626
2228.00,-0.0626
2226.00,-0.0626
2224.00,-0.0626
2222.00,-0.0626
2220.00,-0.0626
2218.00,-0.0626
2216.00,-0.0626
2214.00,-0.0626
2212.00,-0.0626
2210.00,-0.0626
2208.00,-0.0626
2206.00,-0.0626
2204.00,-0.0626
2202.00,-0.0626
2200.00,-0.0625
2198.00,-0.0625
2196.00,-0.0625
2194.00,-0.0625
2192.00,-0.0625
2190.00,-0.0625
2188.00,-0.0624
2186.00,-0.0624
2184.00,-0.0624
2182.00,-0.0624
2180.00,-0.0624
2178.00,-0.0624
2176.00,-0.0624
2174.00,-0.0624
2172.00,-0.0624
2170.00,-0.0624
2168.00,-0.0624
2166.00,-0.0624
2164.00,-0.0624
2162.00,-0.0624
2160.00,-0.0624
2158.00,-0.0625
2156.00,-0.0625
2154.00,-0.0625
2152.00,-0.0625
2150.00,-0.0625
2148.00,-0.0625
2146.00,-0.0625
2144.00,-0.0625
2142.00,-0.0625
2140.00,-0.0624
2138.00,-0.0624
2136.00,-0.0624
2134.00,-0.0624
2132.00,-0.0624
2130.00,-0.0624
2128.00,-0.0624
2126.00,-0.0624
2124.00,-0.0624
2122.00,-0.0624
2120.00,-0.0624
2118.00,-0.0624
2116.00,-0.0624
2114.00,-0.0624
2112.00,-0.0624
2110.00,-0.0624
2108.00,-0.0624
2106.00,-0.0623
2104.00,-0.0623
2102.00,-0.0623
2100.00,-0.0623
2098.00,-0.0623
2096.00,-0.0623
2094.00,-0.0623
2092.00,-0.0623
2090.00,-0.0623
2088.00,-0.0623
2086.00,-0.0623
2084.00,-0.0624
2082.00,-0.0624
2080.00,-0.0623
2078.00,-0.0623
2076.00,-0.0623
2074.00,-0.0623
2072.00,-0.0623
2070.00,-0.0623
2068.00,-0.0623
2066.00,-0.0623
2064.00,-0.0623
2062.00,-0.0624
2060.00,-0.0624
2058.00,-0.0624
2056.00,-0.0624
2054.00,-0.0624
2052.00,-0.0624
2050.00,-0.0624
2048.00,-0.0623
2046.00,-0.0623
2044.00,-0.0623
2042.00,-0.0623
2040.00,-0.0623
2038.00,-0.0623
2036.00,-0.0623
2034.00,-0.0624
2032.00,-0.0624
2030.00,-0.0624
2028.00,-0.0624
2026.00,-0.0624
2024.00,-0.0624
2022.00,-0.0624
2020.00,-0.0624
2018.00,-0.0623
2016.00,-0.0623
2014.00,-0.0623
2012.00,-0.0622
2010.00,-0.0622
2008.00,-0.0622
2006.00,-0.0622
2004.00,-0.0622
2002.00,-0.0622
2000.00,-0.0623
1998.00,-0.0623
1996.00,-0.0623
1994.00,-0.0623
1992.00,-0.0624
1990.00,-0.0624
1988.00,-0.0624
1986.00,-0.0624
1984.00,-0.0624
1982.00,-0.0624
1980.00,-0.0624
1978.00,-0.0624
1976.00,-0.0624
1974.00,-0.0624
1972.00,-0.0624
1970.00,-0.0624
1968.00,-0.0624
1966.00,-0.0624
1964.00,-0.0624
1962.00,-0.0624
1960.00,-0.0625
1958.00,-0.0624
1956.00,-0.0624
1954.00,-0.0624
1952.00,-0.0624
1950.00,-0.0624
1948.00,-0.0624
1946.00,-0.0624
1944.00,-0.0624
1942.00,-0.0624
1940.00,-0.0625
1938.00,-0.0624
1936.00,-0.0624
1934.00,-0.0624
1932.00,-0.0623
1930.00,-0.0623
1928.00,-0.0623
1926.00,-0.0622
1924.00,-0.0622
1922.00,-0.0622
1920.00,-0.0622
1918.00,-0.0622
1916.00,-0.0622
1914.00,-0.0622
1912.00,-0.0622
1910.00,-0.0622
1908.00,-0.0622
1906.00,-0.0623
1904.00,-0.0623
1902.00,-0.0623
1900.00,-0.0623
1898.00,-0.0623
1896.00,-0.0623
1894.00,-0.0623
1892.00,-0.0623
1890.00,-0.0623
1888.00,-0.0623
1886.00,-0.0623
1884.00,-0.0623
1882.00,-0.0623
1880.00,-0.0624
1878.00,-0.0624
1876.00,-0.0624
1874.00,-0.0624
1872.00,-0.0624
1870.00,-0.0624
1868.00,-0.0624
1866.00,-0.0625
1864.00,-0.0625
1862.00,-0.0624
1860.00,-0.0624
1858.00,-0.0624
1856.00,-0.0624
1854.00,-0.0624
1852.00,-0.0624
1850.00,-0.0624
1848.00,-0.0625
1846.00,-0.0625
1844.00,-0.0625
1842.00,-0.0625
1840.00,-0.0625
1838.00,-0.0625
1836.00,-0.0625
1834.00,-0.0625
1832.00,-0.0624
1830.00,-0.0624
1828.00,-0.0625
1826.00,-0.0624
1824.00,-0.0624
1822.00,-0.0624
1820.00,-0.0625
1818.00,-0.0625
1816.00,-0.0625
1814.00,-0.0625
1812.00,-0.0626
1810.00,-0.0626
1808.00,-0.0626
1806.00,-0.0627
1804.00,-0.0626
1802.00,-0.0626
1800.00,-0.0627
1798.00,-0.0627
1796.00,-0.0628
1794.00,-0.0633
1792.00,-0.0631
1790.00,-0.0629
1788.00,-0.0629
1786.00,-0.0630
1784.00,-0.0628
1782.00,-0.0627
1780.00,-0.0628
1778.00,-0.0628
1776.00,-0.0628
1774.00,-0.0628
1772.00,-0.0628
1770.00,-0.0628
1768.00,-0.0627
1766.00,-0.0627
1764.00,-0.0627
1762.00,-0.0626
1760.00,-0.0627
1758.00,-0.0626
1756.00,-0.0626
1754.00,-0.0626
1752.00,-0.0626
1750.00,-0.0626
1748.00,-0.0626
1746.00,-0.0626
1744.00,-0.0627
1742.00,-0.0627
1740.00,-0.0627
1738.00,-0.0627
1736.00,-0.0627
1734.00,-0.0626
1732.00,-0.0626
1730.00,-0.0626
1728.00,-0.0627
1726.00,-0.0626
1724.00,-0.0626
1722.00,-0.0627
1720.00,-0.0627
1718.00,-0.0627
1716.00,-0.0627
1714.00,-0.0627
1712.00,-0.0628
1710.00,-0.0628
1708.00,-0.0627
1706.00,-0.0627
1704.00,-0.0628
1702.00,-0.0628
1700.00,-0.0627
1698.00,-0.0627
1696.00,-0.0627
1694.00,-0.0628
1692.00,-0.0627
1690.00,-0.0627
1688.00,-0.0628
1686.00,-0.0628
1684.00,-0.0627
1682.00,-0.0628
1680.00,-0.0628
1678.00,-0.0628
1676.00,-0.0627
1674.00,-0.0627
1672.00,-0.0627
1670.00,-0.0626
1668.00,-0.0626
1666.00,-0.0626
1664.00,-0.0626
1662.00,-0.0626
1660.00,-0.0626
1658.00,-0.0627
1656.00,-0.0627
1654.00,-0.0627
1652.00,-0.0628
1650.00,-0.0627
1648.00,-0.0627
1646.00,-0.0627
1644.00,-0.0627
1642.00,-0.0627
1640.00,-0.0627
1638.00,-0.0627
1636.00,-0.0627
1634.00,-0.0628
1632.00,-0.0627
1630.00,-0.0627
1628.00,-0.0627
1626.00,-0.0628
1624.00,-0.0628
1622.00,-0.0628
1620.00,-0.0628
1618.00,-0.0628
1616.00,-0.0628
1614.00,-0.0627
1612.00,-0.0627
1610.00,-0.0627
1608.00,-0.0627
1606.00,-0.0627
1604.00,-0.0627
1602.00,-0.0627
1600.00,-0.0627
1598.00,-0.0627
1596.00,-0.0627
1594.00,-0.0627
1592.00,-0.0627
1590.00,-0.0627
1588.00,-0.0627
1586.00,-0.0627
1584.00,-0.0627
1582.00,-0.0627
1580.00,-0.0627
1578.00,-0.0627
1576.00,-0.0627
1574.00,-0.0627
1572.00,-0.0627
1570.00,-0.0627
1568.00,-0.0627
1566.00,-0.0627
1564.00,-0.0627
1562.00,-0.0627
1560.00,-0.0627
1558.00,-0.0627
1556.00,-0.0627
1554.00,-0.0627
1552.00,-0.0627
1550.00,-0.0627
1548.00,-0.0628
1546.00,-0.0628
1544.00,-0.0628
1542.00,-0.0628
1540.00,-0.0628
1538.00,-0.0629
1536.00,-0.0628
1534.00,-0.0627
1532.00,-0.0628
1530.00,-0.0628
1528.00,-0.0628
1526.00,-0.0628
1524.00,-0.0628
1522.00,-0.0627
1520.00,-0.0627
1518.00,-0.0626
1516.00,-0.0626
1514.00,-0.0626
1512.00,-0.0625
1510.00,-0.0625
1508.00,-0.0625
1506.00,-0.0625
1504.00,-0.0625
1502.00,-0.0624
1500.00,-0.0623
1498.00,-0.0622
1496.00,-0.0621
1494.00,-0.0620
1492.00,-0.0620
1490.00,-0.0621
1488.00,-0.0622
1486.00,-0.0623
1484.00,-0.0623
1482.00,-0.0623
1480.00,-0.0623
1478.00,-0.0623
1476.00,-0.0623
1474.00,-0.0623
1472.00,-0.0623
1470.00,-0.0624
1468.00,-0.0624
1466.00,-0.0624
1464.00,-0.0624
1462.00,-0.0624
1460.00,-0.0624
1458.00,-0.0623
1456.00,-0.0621
1454.00,-0.0619
1452.00,-0.0619
1450.00,-0.0619
1448.00,-0.0620
1446.00,-0.0621
1444.00,-0.0622
1442.00,-0.0622
1440.00,-0.0622
1438.00,-0.0621
1436.00,-0.0621
1434.00,-0.0622
1432.00,-0.0622
1430.00,-0.0621
1428.00,-0.0621
1426.00,-0.0620
1424.00,-0.0620
1422.00,-0.0619
1420.00,-0.0617
1418.00,-0.0615
1416.00,-0.0614
1414.00,-0.0612
1412.00,-0.0610
1410.00,-0.0608
1408.00,-0.0606
1406.00,-0.0606
1404.00,-0.0606
1402.00,-0.0608
1400.00,-0.0610
1398.00,-0.0610
1396.00,-0.0607
1394.00,-0.0604
1392.00,-0.0608
1390.00,-0.0611
1388.00,-0.0612
1386.00,-0.0611
1384.00,-0.0610
1382.00,-0.0610
1380.00,-0.0610
1378.00,-0.0611
1376.00,-0.0613
1374.00,-0.0614
1372.00,-0.0616
1370.00,-0.0618
1368.00,-0.0619
1366.00,-0.0620
1364.00,-0.0620
1362.00,-0.0621
1360.00,-0.0622
1358.00,-0.0622
1356.00,-0.0623
1354.00,-0.0623
1352.00,-0.0624
1350.00,-0.0624
1348.00,-0.0624
1346.00,-0.0624
1344.00,-0.0625
1342.00,-0.0625
1340.00,-0.0625
1338.00,-0.0625
1336.00,-0.0626
1334.00,-0.0626
1332.00,-0.0626
1330.00,-0.0626
1328.00,-0.0626
1326.00,-0.0626
1324.00,-0.0626
1322.00,-0.0626
1320.00,-0.0626
1318.00,-0.0626
1316.00,-0.0626
1314.00,-0.0626
1312.00,-0.0626
1310.00,-0.0627
1308.00,-0.0627
1306.00,-0.0626
1304.00,-0.0626
1302.00,-0.0627
1300.00,-0.0627
1298.00,-0.0626
1296.00,-0.0626
1294.00,-0.0626
1292.00,-0.0625
1290.00,-0.0625
1288.00,-0.0625
1286.00,-0.0624
1284.00,-0.0624
1282.00,-0.0624
1280.00,-0.0623
1278.00,-0.0623
1276.00,-0.0622
1274.00,-0.0622
1272.00,-0.0621
1270.00,-0.0620
1268.00,-0.0618
1266.00,-0.0616
1264.00,-0.0615
1262.00,-0.0613
1260.00,-0.0612
1258.00,-0.0612
1256.00,-0.0612
1254.00,-0.0612
1252.00,-0.0611
1250.00,-0.0611
1248.00,-0.0613
1246.00,-0.0614
1244.00,-0.0614
1242.00,-0.0613
1240.00,-0.0614
1238.00,-0.0616
1236.00,-0.0616
1234.00,-0.0614
1232.00,-0.0613
1230.00,-0.0613
1228.00,-0.0613
1226.00,-0.0613
1224.00,-0.0614
1222.00,-0.0615
1220.00,-0.0617
1218.00,-0.0618
1216.00,-0.0619
1214.00,-0.0620
1212.00,-0.0621
1210.00,-0.0621
1208.00,-0.0622
1206.00,-0.0622
1204.00,-0.0623
1202.00,-0.0623
1200.00,-0.0623
1198.00,-0.0623
1196.00,-0.0624
1194.00,-0.0624
1192.00,-0.0624
1190.00,-0.0625
1188.00,-0.0625
1186.00,-0.0625
1184.00,-0.0626
1182.00,-0.0626
1180.00,-0.0626
1178.00,-0.0626
1176.00,-0.0626
1174.00,-0.0626
1172.00,-0.0626
1170.00,-0.0626
1168.00,-0.0626
1166.00,-0.0626
1164.00,-0.0626
1162.00,-0.0626
1160.00,-0.0626
1158.00,-0.0626
1156.00,-0.0626
1154.00,-0.0626
1152.00,-0.0626
1150.00,-0.0626
1148.00,-0.0626
1146.00,-0.0625
1144.00,-0.0625
1142.00,-0.0625
1140.00,-0.0625
1138.00,-0.0624
1136.00,-0.0624
1134.00,-0.0624
1132.00,-0.0624
1130.00,-0.0623
1128.00,-0.0622
1126.00,-0.0622
1124.00,-0.0622
1122.00,-0.0621
1120.00,-0.0620
1118.00,-0.0619
1116.00,-0.0618
1114.00,-0.0616
1112.00,-0.0614
1110.00,-0.0612
1108.00,-0.0610
1106.00,-0.0608
1104.00,-0.0607
1102.00,-0.0606
1100.00,-0.0605
1098.00,-0.0604
1096.00,-0.0603
1094.00,-0.0602
1092.00,-0.0599
1090.00,-0.0595
1088.00,-0.0590
1086.00,-0.0586
1084.00,-0.0581
1082.00,-0.0577
1080.00,-0.0572
1078.00,-0.0569
1076.00,-0.0567
1074.00,-0.0567
1072.00,-0.0569
1070.00,-0.0569
1068.00,-0.0564
1066.00,-0.0560
1064.00,-0.0565
1062.00,-0.0570
1060.00,-0.0568
1058.00,-0.0563
1056.00,-0.0563
1054.00,-0.0564
1052.00,-0.0563
1050.00,-0.0563
1048.00,-0.0565
1046.00,-0.0568
1044.00,-0.0571
1042.00,-0.0575
1040.00,-0.0578
1038.00,-0.0581
1036.00,-0.0585
1034.00,-0.0590
1032.00,-0.0594
1030.00,-0.0596
1028.00,-0.0595
1026.00,-0.0598
1024.00,-0.0603
1022.00,-0.0605
1020.00,-0.0606
1018.00,-0.0607
1016.00,-0.0608
1014.00,-0.0609
1012.00,-0.0612
1010.00,-0.0614
1008.00,-0.0616
1006.00,-0.0618
1004.00,-0.0620
1002.00,-0.0622
1000.00,-0.0624
998.00,-0.0625
996.00,-0.0627
994.00,-0.0628
992.00,-0.0629
990.00,-0.0630
988.00,-0.0630
986.00,-0.0631
984.00,-0.0632
982.00,-0.0632
980.00,-0.0632
978.00,-0.0633
976.00,-0.0633
974.00,-0.0634
972.00,-0.0634
970.00,-0.0634
968.00,-0.0635
966.00,-0.0635
964.00,-0.0636
962.00,-0.0636
960.00,-0.0636
958.00,-0.0636
956.00,-0.0636
954.00,-0.0636
952.00,-0.0636
950.00,-0.0637
948.00,-0.0637
946.00,-0.0637
944.00,-0.0637
942.00,-0.0637
940.00,-0.0637
938.00,-0.0638
936.00,-0.0638
934.00,-0.0638
932.00,-0.0638
930.00,-0.0638
928.00,-0.0638
926.00,-0.0638
924.00,-0.0638
922.00,-0.0638
920.00,-0.0637
918.00,-0.0637
916.00,-0.0636
914.00,-0.0635
912.00,-0.0635
910.00,-0.0634
908.00,-0.0633
906.00,-0.0632
904.00,-0.0632
902.00,-0.0631
900.00,-0.0630
898.00,-0.0629
896.00,-0.0629
894.00,-0.0629
892.00,-0.0629
890.00,-0.0629
888.00,-0.0630
886.00,-0.0630
884.00,-0.0629
882.00,-0.0628
880.00,-0.0627
878.00,-0.0628
876.00,-0.0629
874.00,-0.0629
872.00,-0.0629
870.00,-0.0629
868.00,-0.0630
866.00,-0.0630
864.00,-0.0631
862.00,-0.0632
860.00,-0.0633
858.00,-0.0634
856.00,-0.0634
854.00,-0.0635
852.00,-0.0635
850.00,-0.0636
848.00,-0.0636
846.00,-0.0636
844.00,-0.0637
842.00,-0.0637
840.00,-0.0637
838.00,-0.0637
836.00,-0.0636
834.00,-0.0636
832.00,-0.0635
830.00,-0.0634
828.00,-0.0633
826.00,-0.0632
824.00,-0.0632
822.00,-0.0632
820.00,-0.0633
818.00,-0.0633
816.00,-0.0633
814.00,-0.0633
812.00,-0.0634
810.00,-0.0634
808.00,-0.0634
806.00,-0.0634
804.00,-0.0634
802.00,-0.0634
800.00,-0.0634
798.00,-0.0635
796.00,-0.0635
794.00,-0.0635
792.00,-0.0635
790.00,-0.0636
788.00,-0.0636
786.00,-0.0636
784.00,-0.0637
782.00,-0.0637
780.00,-0.0637
778.00,-0.0638
776.00,-0.0638
774.00,-0.0638
772.00,-0.0638
770.00,-0.0638
768.00,-0.0638
766.00,-0.0638
764.00,-0.0638
762.00,-0.0638
760.00,-0.0637
758.00,-0.0637
756.00,-0.0638
754.00,-0.0637
752.00,-0.0638
750.00,-0.0637
748.00,-0.0637
746.00,-0.0637
744.00,-0.0637
742.00,-0.0637
740.00,-0.0637
738.00,-0.0637
736.00,-0.0637
734.00,-0.0637
732.00,-0.0637
730.00,-0.0637
728.00,-0.0637
726.00,-0.0637
724.00,-0.0637
722.00,-0.0637
720.00,-0.0637
718.00,-0.0637
716.00,-0.0637
714.00,-0.0637
712.00,-0.0636
710.00,-0.0636
708.00,-0.0636
706.00,-0.0636
704.00,-0.0636
702.00,-0.0636
700.00,-0.0636
698.00,-0.0636
696.00,-0.0637
694.00,-0.0637
692.00,-0.0637
690.00,-0.0636
688.00,-0.0636
686.00,-0.0637
684.00,-0.0637
682.00,-0.0638
680.00,-0.0639
678.00,-0.0639
676.00,-0.0639
674.00,-0.0638
672.00,-0.0640
670.00,-0.0650
668.00,-0.0664
666.00,-0.0649
664.00,-0.0639
662.00,-0.0636
660.00,-0.0637
658.00,-0.0637
656.00,-0.0637
654.00,-0.0638
652.00,-0.0637
650.00,-0.0637
648.00,-0.0637
646.00,-0.0637
644.00,-0.0636
642.00,-0.0635
640.00,-0.0635
638.00,-0.0635
636.00,-0.0634
634.00,-0.0634
632.00,-0.0634
630.00,-0.0634
628.00,-0.0634
626.00,-0.0634
624.00,-0.0633
622.00,-0.0634
620.00,-0.0634
618.00,-0.0634
616.00,-0.0634
614.00,-0.0634
612.00,-0.0634
610.00,-0.0634
608.00,-0.0633
606.00,-0.0633
604.00,-0.0633
602.00,-0.0633
600.00,-0.0633
598.00,-0.0633
596.00,-0.0633
594.00,-0.0635
592.00,-0.0634
590.00,-0.0634
588.00,-0.0635
586.00,-0.0634
584.00,-0.0636
582.00,-0.0636
580.00,-0.0635
578.00,-0.0635
576.00,-0.0635
574.00,-0.0636
572.00,-0.0636
570.00,-0.0635
568.00,-0.0636
566.00,-0.0636
564.00,-0.0635
562.00,-0.0635
560.00,-0.0635
558.00,-0.0636
556.00,-0.0636
554.00,-0.0636
552.00,-0.0637
550.00,-0.0636
548.00,-0.0635
546.00,-0.0636
544.00,-0.0635
542.00,-0.0635
540.00,-0.0636
538.00,-0.0636
536.00,-0.0637
534.00,-0.0638
532.00,-0.0637
530.00,-0.0638
528.00,-0.0639
526.00,-0.0638
524.00,-0.0639
522.00,-0.0638
520.00,-0.0638
518.00,-0.0638
516.00,-0.0637
514.00,-0.0638
512.00,-0.0639
510.00,-0.0638
508.00,-0.0639
506.00,-0.0638
504.00,-0.0637
502.00,-0.0639
500.00,-0.0637
