Created as New Dataset,Sample 035 By Analyst Date Wednesday, April 02 2025
cm-1,A
4000.00,-0.0643
3998.00,-0.0643
3996.00,-0.0642
3994.00,-0.0642
3992.00,-0.0642
3990.00,-0.0642
3988.00,-0.0642
3986.00,-0.0641
3984.00,-0.0641
3982.00,-0.0641
3980.00,-0.0642
3978.00,-0.0642
3976.00,-0.0642
3974.00,-0.0642
3972.00,-0.0642
3970.00,-0.0642
3968.00,-0.0643
3966.00,-0.0643
3964.00,-0.0642
3962.00,-0.0642
3960.00,-0.0642
3958.00,-0.0642
3956.00,-0.0642
3954.00,-0.0642
3952.00,-0.0642
3950.00,-0.0642
3948.00,-0.0642
3946.00,-0.0642
3944.00,-0.0642
3942.00,-0.0643
3940.00,-0.0643
3938.00,-0.0643
3936.00,-0.0643
3934.00,-0.0643
3932.00,-0.0643
3930.00,-0.0642
3928.00,-0.0642
3926.00,-0.0642
3924.00,-0.0642
3922.00,-0.0642
3920.00,-0.0641
3918.00,-0.0641
3916.00,-0.0641
3914.00,-0.0641
3912.00,-0.0641
3910.00,-0.0641
3908.00,-0.0642
3906.00,-0.0642
3904.00,-0.0642
3902.00,-0.0641
3900.00,-0.0640
3898.00,-0.0640
3896.00,-0.0640
3894.00,-0.0640
3892.00,-0.0640
3890.00,-0.0641
3888.00,-0.0641
3886.00,-0.0640
3884.00,-0.0641
3882.00,-0.0640
3880.00,-0.0640
3878.00,-0.0642
3876.00,-0.0641
3874.00,-0.0642
3872.00,-0.0643
3870.00,-0.0641
3868.00,-0.0642
3866.00,-0.0640
3864.00,-0.0640
3862.00,-0.0640
3860.00,-0.0641
3858.00,-0.0642
3856.00,-0.0644
3854.00,-0.0642
3852.00,-0.0642
3850.00,-0.0641
3848.00,-0.0640
3846.00,-0.0641
3844.00,-0.0643
3842.00,-0.0644
3840.00,-0.0643
3838.00,-0.0643
3836.00,-0.0642
3834.00,-0.0641
3832.00,-0.0640
3830.00,-0.0640
3828.00,-0.0640
3826.00,-0.0641
3824.00,-0.0642
3822.00,-0.0641
3820.00,-0.0642
3818.00,-0.0641
3816.00,-0.0639
3814.00,-0.0640
3812.00,-0.0640
3810.00,-0.0640
3808.00,-0.0640
3806.00,-0.0641
3804.00,-0.0641
3802.00,-0.0639
3800.00,-0.0640
3798.00,-0.0639
3796.00,-0.0638
3794.00,-0.0639
3792.00,-0.0639
3790.00,-0.0639
3788.00,-0.0640
3786.00,-0.0640
3784.00,-0.0641
3782.00,-0.0641
3780.00,-0.0640
3778.00,-0.0641
3776.00,-0.0640
3774.00,-0.0641
3772.00,-0.0641
3770.00,-0.0641
3768.00,-0.0641
3766.00,-0.0640
3764.00,-0.0640
3762.00,-0.0640
3760.00,-0.0640
3758.00,-0.0641
3756.00,-0.0642
3754.00,-0.0643
3752.00,-0.0643
3750.00,-0.0643
3748.00,-0.0643
3746.00,-0.0640
3744.00,-0.0639
3742.00,-0.0640
3740.00,-0.0639
3738.00,-0.0639
3736.00,-0.0639
3734.00,-0.0639
3732.00,-0.0638
3730.00,-0.0638
3728.00,-0.0637
3726.00,-0.0638
3724.00,-0.0638
3722.00,-0.0638
3720.00,-0.0638
3718.00,-0.0638
3716.00,-0.0638
3714.00,-0.0638
3712.00,-0.0637
3710.00,-0.0636
3708.00,-0.0635
3706.00,-0.0635
3704.00,-0.0634
3702.00,-0.0634
3700.00,-0.0633
3698.00,-0.0632
3696.00,-0.0632
3694.00,-0.0632
3692.00,-0.0633
3690.00,-0.0633
3688.00,-0.0632
3686.00,-0.0631
3684.00,-0.0630
3682.00,-0.0631
3680.00,-0.0632
3678.00,-0.0631
3676.00,-0.0629
3674.00,-0.0630
3672.00,-0.0628
3670.00,-0.0627
3668.00,-0.0628
3666.00,-0.0628
3664.00,-0.0628
3662.00,-0.0629
3660.00,-0.0630
3658.00,-0.0631
3656.00,-0.0632
3654.00,-0.0634
3652.00,-0.0634
3650.00,-0.0634
3648.00,-0.0633
3646.00,-0.0633
3644.00,-0.0633
3642.00,-0.0633
3640.00,-0.0634
3638.00,-0.0635
3636.00,-0.0635
3634.00,-0.0636
3632.00,-0.0638
3630.00,-0.0637
3628.00,-0.0637
3626.00,-0.0638
3624.00,-0.0638
3622.00,-0.0639
3620.00,-0.0640
3618.00,-0.0640
3616.00,-0.0639
3614.00,-0.0638
3612.00,-0.0639
3610.00,-0.0638
3608.00,-0.0638
3606.00,-0.0638
3604.00,-0.0639
3602.00,-0.0639
3600.00,-0.0640
3598.00,-0.0641
3596.00,-0.0640
3594.00,-0.0641
3592.00,-0.0641
3590.00,-0.0641
3588.00,-0.0640
3586.00,-0.0640
3584.00,-0.0640
3582.00,-0.0640
3580.00,-0.0640
3578.00,-0.0640
3576.00,-0.0640
3574.00,-0.0641
3572.00,-0.0641
3570.00,-0.0641
3568.00,-0.0641
3566.00,-0.0641
3564.00,-0.0641
3562.00,-0.0641
3560.00,-0.0642
3558.00,-0.0642
3556.00,-0.0642
3554.00,-0.0641
3552.00,-0.0641
3550.00,-0.0641
3548.00,-0.0641
3546.00,-0.0640
3544.00,-0.0640
3542.00,-0.0640
3540.00,-0.0640
3538.00,-0.0640
3536.00,-0.0640
3534.00,-0.0641
3532.00,-0.0641
3530.00,-0.0641
3528.00,-0.0641
3526.00,-0.0641
3524.00,-0.0640
3522.00,-0.0641
3520.00,-0.0641
3518.00,-0.0640
3516.00,-0.0640
3514.00,-0.0640
3512.00,-0.0641
3510.00,-0.0641
3508.00,-0.0641
3506.00,-0.0641
3504.00,-0.0641
3502.00,-0.0642
3500.00,-0.0642
3498.00,-0.0642
3496.00,-0.0642
3494.00,-0.0642
3492.00,-0.0642
3490.00,-0.0642
3488.00,-0.0642
3486.00,-0.0642
3484.00,-0.0641
3482.00,-0.0641
3480.00,-0.0642
3478.00,-0.0642
3476.00,-0.0642
3474.00,-0.0642
3472.00,-0.0643
3470.00,-0.0643
3468.00,-0.0643
3466.00,-0.0643
3464.00,-0.0643
3462.00,-0.0643
3460.00,-0.0642
3458.00,-0.0642
3456.00,-0.0642
3454.00,-0.0642
3452.00,-0.0641
3450.00,-0.0641
3448.00,-0.0641
3446.00,-0.0641
3444.00,-0.0641
3442.00,-0.0642
3440.00,-0.0642
3438.00,-0.0642
3436.00,-0.0642
3434.00,-0.0642
3432.00,-0.0642
3430.00,-0.0642
3428.00,-0.0642
3426.00,-0.0642
3424.00,-0.0641
3422.00,-0.0641
3420.00,-0.0641
3418.00,-0.0641
3416.00,-0.0641
3414.00,-0.0642
3412.00,-0.0642
3410.00,-0.0642
3408.00,-0.0642
3406.00,-0.0642
3404.00,-0.0642
3402.00,-0.0642
3400.00,-0.0642
3398.00,-0.0642
3396.00,-0.0641
3394.00,-0.0641
3392.00,-0.0641
3390.00,-0.0641
3388.00,-0.0641
3386.00,-0.0641
3384.00,-0.0641
3382.00,-0.0641
3380.00,-0.0641
3378.00,-0.0642
3376.00,-0.0642
3374.00,-0.0642
3372.00,-0.0642
3370.00,-0.0642
3368.00,-0.0641
3366.00,-0.0641
3364.00,-0.0640
3362.00,-0.0640
3360.00,-0.0640
3358.00,-0.0639
3356.00,-0.0639
3354.00,-0.0639
3352.00,-0.0639
3350.00,-0.0640
3348.00,-0.0640
3346.00,-0.0640
3344.00,-0.0640
3342.00,-0.0640
3340.00,-0.0641
3338.00,-0.0641
3336.00,-0.0640
3334.00,-0.0640
3332.00,-0.0640
3330.00,-0.0640
3328.00,-0.0640
3326.00,-0.0640
3324.00,-0.0640
3322.00,-0.0640
3320.00,-0.0641
3318.00,-0.0641
3316.00,-0.0641
3314.00,-0.0642
3312.00,-0.0642
3310.00,-0.0642
3308.00,-0.0642
3306.00,-0.0642
3304.00,-0.0642
3302.00,-0.0642
3300.00,-0.0642
3298.00,-0.0642
3296.00,-0.0641
3294.00,-0.0641
3292.00,-0.0641
3290.00,-0.0641
3288.00,-0.0641
3286.00,-0.0641
3284.00,-0.0641
3282.00,-0.0642
3280.00,-0.0641
3278.00,-0.0641
3276.00,-0.0641
3274.00,-0.0641
3272.00,-0.0641
3270.00,-0.0640
3268.00,-0.0639
3266.00,-0.0639
3264.00,-0.0639
3262.00,-0.0639
3260.00,-0.0639
3258.00,-0.0639
3256.00,-0.0639
3254.00,-0.0639
3252.00,-0.0640
3250.00,-0.0640
3248.00,-0.0640
3246.00,-0.0640
3244.00,-0.0640
3242.00,-0.0640
3240.00,-0.0640
3238.00,-0.0639
3236.00,-0.0639
3234.00,-0.0639
3232.00,-0.0639
3230.00,-0.0639
3228.00,-0.0640
3226.00,-0.0640
3224.00,-0.0640
3222.00,-0.0641
3220.00,-0.0641
3218.00,-0.0641
3216.00,-0.0641
3214.00,-0.0641
3212.00,-0.0641
3210.00,-0.0641
3208.00,-0.0641
3206.00,-0.0641
3204.00,-0.0641
3202.00,-0.0641
3200.00,-0.0641
3198.00,-0.0641
3196.00,-0.0641
3194.00,-0.0641
3192.00,-0.0641
3190.00,-0.0641
3188.00,-0.0641
3186.00,-0.0641
3184.00,-0.0641
3182.00,-0.0641
3180.00,-0.0641
3178.00,-0.0640
3176.00,-0.0640
3174.00,-0.0640
3172.00,-0.0639
3170.00,-0.0639
3168.00,-0.0639
3166.00,-0.0639
3164.00,-0.0639
3162.00,-0.0640
3160.00,-0.0640
3158.00,-0.0640
3156.00,-0.0640
3154.00,-0.0641
3152.00,-0.0641
3150.00,-0.0641
3148.00,-0.0641
3146.00,-0.0640
3144.00,-0.0640
3142.00,-0.0640
3140.00,-0.0640
3138.00,-0.0640
3136.00,-0.0640
3134.00,-0.0640
3132.00,-0.0640
3130.00,-0.0641
3128.00,-0.0641
3126.00,-0.0641
3124.00,-0.0642
3122.00,-0.0642
3120.00,-0.0642
3118.00,-0.0642
3116.00,-0.0642
3114.00,-0.0641
3112.00,-0.0641
3110.00,-0.0641
3108.00,-0.0641
3106.00,-0.0641
3104.00,-0.0641
3102.00,-0.0641
3100.00,-0.0641
3098.00,-0.0641
3096.00,-0.0642
3094.00,-0.0642
3092.00,-0.0642
3090.00,-0.0642
3088.00,-0.0641
3086.00,-0.0641
3084.00,-0.0641
3082.00,-0.0641
3080.00,-0.0640
3078.00,-0.0640
3076.00,-0.0640
3074.00,-0.0640
3072.00,-0.0640
3070.00,-0.0640
3068.00,-0.0640
3066.00,-0.0641
3064.00,-0.0641
3062.00,-0.0641
3060.00,-0.0641
3058.00,-0.0641
3056.00,-0.0641
3054.00,-0.0640
3052.00,-0.0640
3050.00,-0.0640
3048.00,-0.0639
3046.00,-0.0639
3044.00,-0.0638
3042.00,-0.0638
3040.00,-0.0638
3038.00,-0.0637
3036.00,-0.0637
3034.00,-0.0636
3032.00,-0.0635
3030.00,-0.0634
3028.00,-0.0633
3026.00,-0.0632
3024.00,-0.0630
3022.00,-0.0628
3020.00,-0.0626
3018.00,-0.0624
3016.00,-0.0622
3014.00,-0.0620
3012.00,-0.0618
3010.00,-0.0616
3008.00,-0.0613
3006.00,-0.0611
3004.00,-0.0609
3002.00,-0.0607
3000.00,-0.0604
2998.00,-0.0602
2996.00,-0.0601
2994.00,-0.0599
2992.00,-0.0595
2990.00,-0.0590
2988.00,-0.0588
2986.00,-0.0589
2984.00,-0.0590
2982.00,-0.0590
2980.00,-0.0590
2978.00,-0.0590
2976.00,-0.0590
2974.00,-0.0589
2972.00,-0.0589
2970.00,-0.0590
2968.00,-0.0592
2966.00,-0.0594
2964.00,-0.0596
2962.00,-0.0597
2960.00,-0.0598
2958.00,-0.0599
2956.00,-0.0600
2954.00,-0.0601
2952.00,-0.0602
2950.00,-0.0603
2948.00,-0.0604
2946.00,-0.0605
2944.00,-0.0605
2942.00,-0.0605
2940.00,-0.0606
2938.00,-0.0607
2936.00,-0.0607
2934.00,-0.0607
2932.00,-0.0607
2930.00,-0.0606
2928.00,-0.0606
2926.00,-0.0605
2924.00,-0.0604
2922.00,-0.0604
2920.00,-0.0604
2918.00,-0.0603
2916.00,-0.0603
2914.00,-0.0602
2912.00,-0.0601
2910.00,-0.0601
2908.00,-0.0601
2906.00,-0.0600
2904.00,-0.0599
2902.00,-0.0597
2900.00,-0.0598
2898.00,-0.0600
2896.00,-0.0602
2894.00,-0.0602
2892.00,-0.0602
2890.00,-0.0603
2888.00,-0.0603
2886.00,-0.0604
2884.00,-0.0604
2882.00,-0.0606
2880.00,-0.0608
2878.00,-0.0610
2876.00,-0.0611
2874.00,-0.0612
2872.00,-0.0613
2870.00,-0.0614
2868.00,-0.0614
2866.00,-0.0616
2864.00,-0.0617
2862.00,-0.0618
2860.00,-0.0620
2858.00,-0.0621
2856.00,-0.0623
2854.00,-0.0624
2852.00,-0.0625
2850.00,-0.0626
2848.00,-0.0628
2846.00,-0.0628
2844.00,-0.0629
2842.00,-0.0630
2840.00,-0.0631
2838.00,-0.0632
2836.00,-0.0632
2834.00,-0.0633
2832.00,-0.0633
2830.00,-0.0633
2828.00,-0.0633
2826.00,-0.0633
2824.00,-0.0633
2822.00,-0.0633
2820.00,-0.0633
2818.00,-0.0634
2816.00,-0.0634
2814.00,-0.0634
2812.00,-0.0634
2810.00,-0.0634
2808.00,-0.0634
2806.00,-0.0634
2804.00,-0.0634
2802.00,-0.0634
2800.00,-0.0634
2798.00,-0.0634
2796.00,-0.0634
2794.00,-0.0634
2792.00,-0.0634
2790.00,-0.0634
2788.00,-0.0635
2786.00,-0.0635
2784.00,-0.0635
2782.00,-0.0636
2780.00,-0.0636
2778.00,-0.0636
2776.00,-0.0636
2774.00,-0.0636
2772.00,-0.0636
2770.00,-0.0636
2768.00,-0.0636
2766.00,-0.0636
2764.00,-0.0635
2762.00,-0.0635
2760.00,-0.0635
2758.00,-0.0636
2756.00,-0.0636
2754.00,-0.0636
2752.00,-0.0637
2750.00,-0.0637
2748.00,-0.0637
2746.00,-0.0637
2744.00,-0.0637
2742.00,-0.0637
2740.00,-0.0637
2738.00,-0.0637
2736.00,-0.0637
2734.00,-0.0636
2732.00,-0.0636
2730.00,-0.0636
2728.00,-0.0636
2726.00,-0.0636
2724.00,-0.0636
2722.00,-0.0636
2720.00,-0.0636
2718.00,-0.0636
2716.00,-0.0636
2714.00,-0.0636
2712.00,-0.0636
2710.00,-0.0636
2708.00,-0.0636
2706.00,-0.0636
2704.00,-0.0636
2702.00,-0.0635
2700.00,-0.0635
2698.00,-0.0635
2696.00,-0.0636
2694.00,-0.0636
2692.00,-0.0636
2690.00,-0.0636
2688.00,-0.0637
2686.00,-0.0637
2684.00,-0.0637
2682.00,-0.0637
2680.00,-0.0637
2678.00,-0.0637
2676.00,-0.0637
2674.00,-0.0636
2672.00,-0.0636
2670.00,-0.0636
2668.00,-0.0636
2666.00,-0.0636
2664.00,-0.0636
2662.00,-0.0636
2660.00,-0.0637
2658.00,-0.0637
2656.00,-0.0637
2654.00,-0.0637
2652.00,-0.0637
2650.00,-0.0637
2648.00,-0.0637
2646.00,-0.0637
2644.00,-0.0636
2642.00,-0.0636
2640.00,-0.0636
2638.00,-0.0635
2636.00,-0.0635
2634.00,-0.0635
2632.00,-0.0635
2630.00,-0.0635
2628.00,-0.0635
2626.00,-0.0635
2624.00,-0.0635
2622.00,-0.0636
2620.00,-0.0636
2618.00,-0.0636
2616.00,-0.0636
2614.00,-0.0635
2612.00,-0.0635
2610.00,-0.0635
2608.00,-0.0635
2606.00,-0.0635
2604.00,-0.0635
2602.00,-0.0635
2600.00,-0.0635
2598.00,-0.0635
2596.00,-0.0636
2594.00,-0.0636
2592.00,-0.0636
2590.00,-0.0636
2588.00,-0.0636
2586.00,-0.0636
2584.00,-0.0636
2582.00,-0.0636
2580.00,-0.0636
2578.00,-0.0635
2576.00,-0.0635
2574.00,-0.0635
2572.00,-0.0635
2570.00,-0.0635
2568.00,-0.0635
2566.00,-0.0636
2564.00,-0.0636
2562.00,-0.0636
2560.00,-0.0636
2558.00,-0.0636
2556.00,-0.0636
2554.00,-0.0636
2552.00,-0.0635
2550.00,-0.0635
2548.00,-0.0635
2546.00,-0.0634
2544.00,-0.0634
2542.00,-0.0634
2540.00,-0.0634
2538.00,-0.0634
2536.00,-0.0634
2534.00,-0.0634
2532.00,-0.0634
2530.00,-0.0634
2528.00,-0.0634
2526.00,-0.0634
2524.00,-0.0634
2522.00,-0.0634
2520.00,-0.0634
2518.00,-0.0634
2516.00,-0.0633
2514.00,-0.0633
2512.00,-0.0633
2510.00,-0.0633
2508.00,-0.0633
2506.00,-0.0633
2504.00,-0.0633
2502.00,-0.0634
2500.00,-0.0634
2498.00,-0.0634
2496.00,-0.0634
2494.00,-0.0634
2492.00,-0.0634
2490.00,-0.0634
2488.00,-0.0633
2486.00,-0.0633
2484.00,-0.0633
2482.00,-0.0633
2480.00,-0.0633
2478.00,-0.0633
2476.00,-0.0633
2474.00,-0.0633
2472.00,-0.0633
2470.00,-0.0633
2468.00,-0.0633
2466.00,-0.0633
2464.00,-0.0633
2462.00,-0.0633
2460.00,-0.0633
2458.00,-0.0633
2456.00,-0.0632
2454.00,-0.0632
2452.00,-0.0631
2450.00,-0.0631
2448.00,-0.0631
2446.00,-0.0631
2444.00,-0.0631
2442.00,-0.0631
2440.00,-0.0632
2438.00,-0.0632
2436.00,-0.0632
2434.00,-0.0632
2432.00,-0.0633
2430.00,-0.0633
2428.00,-0.0632
2426.00,-0.0633
2424.00,-0.0633
2422.00,-0.0632
2420.00,-0.0632
2418.00,-0.0632
2416.00,-0.0633
2414.00,-0.0633
2412.00,-0.0632
2410.00,-0.0632
2408.00,-0.0633
2406.00,-0.0633
2404.00,-0.0633
2402.00,-0.0633
2400.00,-0.0633
2398.00,-0.0633
2396.00,-0.0633
2394.00,-0.0633
2392.00,-0.0632
2390.00,-0.0632
2388.00,-0.0631
2386.00,-0.0631
2384.00,-0.0630
2382.00,-0.0629
2380.00,-0.0630
2378.00,-0.0633
2376.00,-0.0635
2374.00,-0.0635
2372.00,-0.0634
2370.00,-0.0633
2368.00,-0.0632
2366.00,-0.0632
2364.00,-0.0633
2362.00,-0.0633
2360.00,-0.0632
2358.00,-0.0633
2356.00,-0.0633
2354.00,-0.0633
2352.00,-0.0634
2350.00,-0.0634
2348.00,-0.0631
2346.00,-0.0630
2344.00,-0.0633
2342.00,-0.0632
2340.00,-0.0632
2338.00,-0.0632
2336.00,-0.0632
2334.00,-0.0631
2332.00,-0.0631
2330.00,-0.0631
2328.00,-0.0630
2326.00,-0.0629
2324.00,-0.0628
2322.00,-0.0629
2320.00,-0.0630
2318.00,-0.0630
2316.00,-0.0629
2314.00,-0.0629
2312.00,-0.0630
2310.00,-0.0630
2308.00,-0.0630
2306.00,-0.0630
2304.00,-0.0630
2302.00,-0.0630
2300.00,-0.0630
2298.00,-0.0630
2296.00,-0.0630
2294.00,-0.0630
2292.00,-0.0630
2290.00,-0.0630
2288.00,-0.0630
2286.00,-0.0630
2284.00,-0.0630
2282.00,-0.0630
2280.00,-0.0630
2278.00,-0.0630
2276.00,-0.0630
2274.00,-0.0630
2272.00,-0.0630
2270.00,-0.0629
2268.00,-0.0629
2266.00,-0.0629
2264.00,-0.0629
2262.00,-0.0629
2260.00,-0.0629
2258.00,-0.0629
2256.00,-0.0629
2254.00,-0.0629
2252.00,-0.0629
2250.00,-0.0630
2248.00,-0.0630
2246.00,-0.0630
2244.00,-0.0630
2242.00,-0.0630
2240.00,-0.0630
2238.00,-0.0629
2236.00,-0.0629
2234.00,-0.0629
2232.00,-0.0629
2230.00,-0.0629
2228.00,-0.0629
2226.00,-0.0629
2224.00,-0.0629
2222.00,-0.0629
2220.00,-0.0629
2218.00,-0.0629
2216.00,-0.0629
2214.00,-0.0629
2212.00,-0.0629
2210.00,-0.0629
2208.00,-0.0629
2206.00,-0.0629
2204.00,-0.0629
2202.00,-0.0629
2200.00,-0.0628
2198.00,-0.0628
2196.00,-0.0628
2194.00,-0.0628
2192.00,-0.0628
2190.00,-0.0628
2188.00,-0.0628
2186.00,-0.0627
2184.00,-0.0627
2182.00,-0.0627
2180.00,-0.0627
2178.00,-0.0627
2176.00,-0.0627
2174.00,-0.0627
2172.00,-0.0627
2170.00,-0.0627
2168.00,-0.0627
2166.00,-0.0627
2164.00,-0.0627
2162.00,-0.0627
2160.00,-0.0627
2158.00,-0.0628
2156.00,-0.0628
2154.00,-0.0628
2152.00,-0.0628
2150.00,-0.0628
2148.00,-0.0628
2146.00,-0.0628
2144.00,-0.0628
2142.00,-0.0627
2140.00,-0.0627
2138.00,-0.0627
2136.00,-0.0627
2134.00,-0.0627
2132.00,-0.0627
2130.00,-0.0627
2128.00,-0.0627
2126.00,-0.0627
2124.00,-0.0627
2122.00,-0.0627
2120.00,-0.0627
2118.00,-0.0627
2116.00,-0.0627
2114.00,-0.0627
2112.00,-0.0627
2110.00,-0.0627
2108.00,-0.0627
2106.00,-0.0626
2104.00,-0.0626
2102.00,-0.0626
2100.00,-0.0626
2098.00,-0.0626
2096.00,-0.0626
2094.00,-0.0626
2092.00,-0.0626
2090.00,-0.0626
2088.00,-0.0626
2086.00,-0.0626
2084.00,-0.0626
2082.00,-0.0626
2080.00,-0.0626
2078.00,-0.0626
2076.00,-0.0626
2074.00,-0.0626
2072.00,-0.0626
2070.00,-0.0626
2068.00,-0.0626
2066.00,-0.0626
2064.00,-0.0626
2062.00,-0.0627
2060.00,-0.0627
2058.00,-0.0627
2056.00,-0.0627
2054.00,-0.0627
2052.00,-0.0627
2050.00,-0.0626
2048.00,-0.0626
2046.00,-0.0626
2044.00,-0.0626
2042.00,-0.0626
2040.00,-0.0626
2038.00,-0.0626
2036.00,-0.0626
2034.00,-0.0626
2032.00,-0.0627
2030.00,-0.0627
2028.00,-0.0627
2026.00,-0.0627
2024.00,-0.0627
2022.00,-0.0627
2020.00,-0.0626
2018.00,-0.0626
2016.00,-0.0626
2014.00,-0.0625
2012.00,-0.0625
2010.00,-0.0625
2008.00,-0.0625
2006.00,-0.0625
2004.00,-0.0625
2002.00,-0.0625
2000.00,-0.0625
1998.00,-0.0626
1996.00,-0.0626
1994.00,-0.0626
1992.00,-0.0626
1990.00,-0.0627
1988.00,-0.0627
1986.00,-0.0627
1984.00,-0.0627
1982.00,-0.0627
1980.00,-0.0627
1978.00,-0.0627
1976.00,-0.0627
1974.00,-0.0627
1972.00,-0.0627
1970.00,-0.0627
1968.00,-0.0627
1966.00,-0.0627
1964.00,-0.0627
1962.00,-0.0627
1960.00,-0.0628
1958.00,-0.0627
1956.00,-0.0627
1954.00,-0.0627
1952.00,-0.0627
1950.00,-0.0627
1948.00,-0.0627
1946.00,-0.0627
1944.00,-0.0627
1942.00,-0.0627
1940.00,-0.0627
1938.00,-0.0627
1936.00,-0.0627
1934.00,-0.0626
1932.00,-0.0626
1930.00,-0.0626
1928.00,-0.0625
1926.00,-0.0625
1924.00,-0.0625
1922.00,-0.0625
1920.00,-0.0624
1918.00,-0.0624
1916.00,-0.0625
1914.00,-0.0625
1912.00,-0.0624
1910.00,-0.0625
1908.00,-0.0625
1906.00,-0.0625
1904.00,-0.0625
1902.00,-0.0625
1900.00,-0.0625
1898.00,-0.0626
1896.00,-0.0626
1894.00,-0.0626
1892.00,-0.0625
1890.00,-0.0625
1888.00,-0.0626
1886.00,-0.0626
1884.00,-0.0626
1882.00,-0.0626
1880.00,-0.0626
1878.00,-0.0626
1876.00,-0.0627
1874.00,-0.0627
1872.00,-0.0627
1870.00,-0.0627
1868.00,-0.0627
1866.00,-0.0627
1864.00,-0.0627
1862.00,-0.0627
1860.00,-0.0627
1858.00,-0.0627
1856.00,-0.0627
1854.00,-0.0627
1852.00,-0.0627
1850.00,-0.0627
1848.00,-0.0627
1846.00,-0.0627
1844.00,-0.0627
1842.00,-0.0628
1840.00,-0.0627
1838.00,-0.0628
1836.00,-0.0628
1834.00,-0.0628
1832.00,-0.0627
1830.00,-0.0627
1828.00,-0.0627
1826.00,-0.0627
1824.00,-0.0627
1822.00,-0.0627
1820.00,-0.0627
1818.00,-0.0628
1816.00,-0.0628
1814.00,-0.0628
1812.00,-0.0628
1810.00,-0.0629
1808.00,-0.0629
1806.00,-0.0629
1804.00,-0.0629
1802.00,-0.0629
1800.00,-0.0629
1798.00,-0.0629
1796.00,-0.0631
1794.00,-0.0640
1792.00,-0.0644
1790.00,-0.0634
1788.00,-0.0631
1786.00,-0.0632
1784.00,-0.0631
1782.00,-0.0630
1780.00,-0.0630
1778.00,-0.0630
1776.00,-0.0630
1774.00,-0.0630
1772.00,-0.0630
1770.00,-0.0630
1768.00,-0.0630
1766.00,-0.0630
1764.00,-0.0629
1762.00,-0.0629
1760.00,-0.0629
1758.00,-0.0629
1756.00,-0.0629
1754.00,-0.0629
1752.00,-0.0628
1750.00,-0.0629
1748.00,-0.0629
1746.00,-0.0629
1744.00,-0.0629
1742.00,-0.0629
1740.00,-0.0629
1738.00,-0.0629
1736.00,-0.0629
1734.00,-0.0629
1732.00,-0.0629
1730.00,-0.0629
1728.00,-0.0629
1726.00,-0.0629
1724.00,-0.0629
1722.00,-0.0630
1720.00,-0.0630
1718.00,-0.0630
1716.00,-0.0629
1714.00,-0.0630
1712.00,-0.0630
1710.00,-0.0630
1708.00,-0.0630
1706.00,-0.0630
1704.00,-0.0630
1702.00,-0.0630
1700.00,-0.0629
1698.00,-0.0629
1696.00,-0.0629
1694.00,-0.0630
1692.00,-0.0629
1690.00,-0.0630
1688.00,-0.0630
1686.00,-0.0630
1684.00,-0.0630
1682.00,-0.0630
1680.00,-0.0630
1678.00,-0.0630
1676.00,-0.0630
1674.00,-0.0629
1672.00,-0.0629
1670.00,-0.0629
1668.00,-0.0629
1666.00,-0.0628
1664.00,-0.0628
1662.00,-0.0629
1660.00,-0.0629
1658.00,-0.0629
1656.00,-0.0629
1654.00,-0.0629
1652.00,-0.0630
1650.00,-0.0629
1648.00,-0.0629
1646.00,-0.0629
1644.00,-0.0630
1642.00,-0.0630
1640.00,-0.0630
1638.00,-0.0630
1636.00,-0.0630
1634.00,-0.0630
1632.00,-0.0629
1630.00,-0.0629
1628.00,-0.0630
1626.00,-0.0630
1624.00,-0.0630
1622.00,-0.0630
1620.00,-0.0630
1618.00,-0.0630
1616.00,-0.0630
1614.00,-0.0630
1612.00,-0.0629
1610.00,-0.0629
1608.00,-0.0629
1606.00,-0.0629
1604.00,-0.0629
1602.00,-0.0629
1600.00,-0.0629
1598.00,-0.0629
1596.00,-0.0629
1594.00,-0.0629
1592.00,-0.0629
1590.00,-0.0629
1588.00,-0.0629
1586.00,-0.0629
1584.00,-0.0630
1582.00,-0.0630
1580.00,-0.0630
1578.00,-0.0629
1576.00,-0.0629
1574.00,-0.0629
1572.00,-0.0629
1570.00,-0.0629
1568.00,-0.0629
1566.00,-0.0629
1564.00,-0.0629
1562.00,-0.0629
1560.00,-0.0629
1558.00,-0.0629
1556.00,-0.0629
1554.00,-0.0629
1552.00,-0.0629
1550.00,-0.0629
1548.00,-0.0630
1546.00,-0.0630
1544.00,-0.0630
1542.00,-0.0630
1540.00,-0.0630
1538.00,-0.0631
1536.00,-0.0630
1534.00,-0.0630
1532.00,-0.0630
1530.00,-0.0630
1528.00,-0.0630
1526.00,-0.0630
1524.00,-0.0630
1522.00,-0.0629
1520.00,-0.0629
1518.00,-0.0629
1516.00,-0.0629
1514.00,-0.0628
1512.00,-0.0628
1510.00,-0.0627
1508.00,-0.0627
1506.00,-0.0627
1504.00,-0.0627
1502.00,-0.0626
1500.00,-0.0626
1498.00,-0.0624
1496.00,-0.0623
1494.00,-0.0622
1492.00,-0.0623
1490.00,-0.0623
1488.00,-0.0624
1486.00,-0.0625
1484.00,-0.0625
1482.00,-0.0625
1480.00,-0.0625
1478.00,-0.0625
1476.00,-0.0625
1474.00,-0.0625
1472.00,-0.0626
1470.00,-0.0626
1468.00,-0.0626
1466.00,-0.0626
1464.00,-0.0626
1462.00,-0.0626
1460.00,-0.0626
1458.00,-0.0625
1456.00,-0.0623
1454.00,-0.0621
1452.00,-0.0621
1450.00,-0.0621
1448.00,-0.0622
1446.00,-0.0623
1444.00,-0.0623
1442.00,-0.0624
1440.00,-0.0624
1438.00,-0.0623
1436.00,-0.0623
1434.00,-0.0624
1432.00,-0.0624
1430.00,-0.0623
1428.00,-0.0623
1426.00,-0.0622
1424.00,-0.0622
1422.00,-0.0621
1420.00,-0.0619
1418.00,-0.0617
1416.00,-0.0616
1414.00,-0.0613
1412.00,-0.0611
1410.00,-0.0609
1408.00,-0.0608
1406.00,-0.0607
1404.00,-0.0608
1402.00,-0.0610
1400.00,-0.0611
1398.00,-0.0612
1396.00,-0.0609
1394.00,-0.0606
1392.00,-0.0609
1390.00,-0.0613
1388.00,-0.0614
1386.00,-0.0613
1384.00,-0.0612
1382.00,-0.0612
1380.00,-0.0612
1378.00,-0.0613
1376.00,-0.0615
1374.00,-0.0616
1372.00,-0.0618
1370.00,-0.0619
1368.00,-0.0621
1366.00,-0.0622
1364.00,-0.0622
1362.00,-0.0623
1360.00,-0.0624
1358.00,-0.0624
1356.00,-0.0624
1354.00,-0.0625
1352.00,-0.0625
1350.00,-0.0626
1348.00,-0.0626
1346.00,-0.0626
1344.00,-0.0626
1342.00,-0.0627
1340.00,-0.0627
1338.00,-0.0627
1336.00,-0.0628
1334.00,-0.0628
1332.00,-0.0628
1330.00,-0.0628
1328.00,-0.0628
1326.00,-0.0628
1324.00,-0.0628
1322.00,-0.0627
1320.00,-0.0628
1318.00,-0.0628
1316.00,-0.0628
1314.00,-0.0628
1312.00,-0.0628
1310.00,-0.0628
1308.00,-0.0629
1306.00,-0.0628
1304.00,-0.0628
1302.00,-0.0629
1300.00,-0.0629
1298.00,-0.0628
1296.00,-0.0628
1294.00,-0.0627
1292.00,-0.0627
1290.00,-0.0627
1288.00,-0.0626
1286.00,-0.0626
1284.00,-0.0626
1282.00,-0.0626
1280.00,-0.0625
1278.00,-0.0625
1276.00,-0.0624
1274.00,-0.0624
1272.00,-0.0623
1270.00,-0.0622
1268.00,-0.0620
1266.00,-0.0618
1264.00,-0.0616
1262.00,-0.0615
1260.00,-0.0614
1258.00,-0.0613
1256.00,-0.0613
1254.00,-0.0613
1252.00,-0.0613
1250.00,-0.0613
1248.00,-0.0614
1246.00,-0.0616
1244.00,-0.0616
1242.00,-0.0615
1240.00,-0.0616
1238.00,-0.0618
1236.00,-0.0617
1234.00,-0.0616
1232.00,-0.0615
1230.00,-0.0615
1228.00,-0.0615
1226.00,-0.0615
1224.00,-0.0616
1222.00,-0.0617
1220.00,-0.0618
1218.00,-0.0619
1216.00,-0.0620
1214.00,-0.0621
1212.00,-0.0622
1210.00,-0.0623
1208.00,-0.0623
1206.00,-0.0624
1204.00,-0.0624
1202.00,-0.0625
1200.00,-0.0625
1198.00,-0.0625
1196.00,-0.0625
1194.00,-0.0626
1192.00,-0.0626
1190.00,-0.0626
1188.00,-0.0627
1186.00,-0.0627
1184.00,-0.0628
1182.00,-0.0628
1180.00,-0.0628
1178.00,-0.0628
1176.00,-0.0628
1174.00,-0.0628
1172.00,-0.0628
1170.00,-0.0628
1168.00,-0.0628
1166.00,-0.0628
1164.00,-0.0627
1162.00,-0.0627
1160.00,-0.0627
1158.00,-0.0627
1156.00,-0.0627
1154.00,-0.0627
1152.00,-0.0628
1150.00,-0.0628
1148.00,-0.0627
1146.00,-0.0627
1144.00,-0.0627
1142.00,-0.0627
1140.00,-0.0626
1138.00,-0.0626
1136.00,-0.0626
1134.00,-0.0625
1132.00,-0.0625
1130.00,-0.0625
1128.00,-0.0624
1126.00,-0.0624
1124.00,-0.0624
1122.00,-0.0623
1120.00,-0.0622
1118.00,-0.0621
1116.00,-0.0620
1114.00,-0.0618
1112.00,-0.0616
1110.00,-0.0614
1108.00,-0.0612
1106.00,-0.0610
1104.00,-0.0608
1102.00,-0.0607
1100.00,-0.0606
1098.00,-0.0606
1096.00,-0.0605
1094.00,-0.0604
1092.00,-0.0601
1090.00,-0.0596
1088.00,-0.0591
1086.00,-0.0587
1084.00,-0.0583
1082.00,-0.0578
1080.00,-0.0574
1078.00,-0.0570
1076.00,-0.0568
1074.00,-0.0568
1072.00,-0.0570
1070.00,-0.0570
1068.00,-0.0565
1066.00,-0.0561
1064.00,-0.0566
1062.00,-0.0571
1060.00,-0.0569
1058.00,-0.0565
1056.00,-0.0564
1054.00,-0.0565
1052.00,-0.0564
1050.00,-0.0564
1048.00,-0.0566
1046.00,-0.0569
1044.00,-0.0573
1042.00,-0.0576
1040.00,-0.0579
1038.00,-0.0582
1036.00,-0.0586
1034.00,-0.0590
1032.00,-0.0595
1030.00,-0.0598
1028.00,-0.0596
1026.00,-0.0599
1024.00,-0.0604
1022.00,-0.0606
1020.00,-0.0607
1018.00,-0.0608
1016.00,-0.0609
1014.00,-0.0611
1012.00,-0.0613
1010.00,-0.0615
1008.00,-0.0617
1006.00,-0.0619
1004.00,-0.0621
1002.00,-0.0623
1000.00,-0.0625
998.00,-0.0627
996.00,-0.0628
994.00,-0.0629
992.00,-0.0630
990.00,-0.0631
988.00,-0.0632
986.00,-0.0632
984.00,-0.0633
982.00,-0.0633
980.00,-0.0634
978.00,-0.0634
976.00,-0.0635
974.00,-0.0635
972.00,-0.0636
970.00,-0.0636
968.00,-0.0636
966.00,-0.0637
964.00,-0.0637
962.00,-0.0637
960.00,-0.0637
958.00,-0.0638
956.00,-0.0638
954.00,-0.0638
952.00,-0.0638
950.00,-0.0638
948.00,-0.0638
946.00,-0.0638
944.00,-0.0638
942.00,-0.0638
940.00,-0.0639
938.00,-0.0639
936.00,-0.0639
934.00,-0.0639
932.00,-0.0639
930.00,-0.0639
928.00,-0.0639
926.00,-0.0639
924.00,-0.0639
922.00,-0.0639
920.00,-0.0638
918.00,-0.0637
916.00,-0.0637
914.00,-0.0637
912.00,-0.0636
910.00,-0.0635
908.00,-0.0634
906.00,-0.0633
904.00,-0.0633
902.00,-0.0632
900.00,-0.0631
898.00,-0.0631
896.00,-0.0630
894.00,-0.0630
892.00,-0.0630
890.00,-0.0631
888.00,-0.0631
886.00,-0.0631
884.00,-0.0630
882.00,-0.0629
880.00,-0.0628
878.00,-0.0629
876.00,-0.0630
874.00,-0.0630
872.00,-0.0630
870.00,-0.0630
868.00,-0.0631
866.00,-0.0631
864.00,-0.0632
862.00,-0.0633
860.00,-0.0634
858.00,-0.0635
856.00,-0.0635
854.00,-0.0635
852.00,-0.0636
850.00,-0.0637
848.00,-0.0637
846.00,-0.0637
844.00,-0.0638
842.00,-0.0638
840.00,-0.0638
838.00,-0.0637
836.00,-0.0637
834.00,-0.0637
832.00,-0.0636
830.00,-0.0635
828.00,-0.0634
826.00,-0.0633
824.00,-0.0633
822.00,-0.0633
820.00,-0.0633
818.00,-0.0634
816.00,-0.0635
814.00,-0.0635
812.00,-0.0635
810.00,-0.0635
808.00,-0.0635
806.00,-0.0635
804.00,-0.0635
802.00,-0.0635
800.00,-0.0635
798.00,-0.0635
796.00,-0.0636
794.00,-0.0636
792.00,-0.0636
790.00,-0.0637
788.00,-0.0638
786.00,-0.0638
784.00,-0.0638
782.00,-0.0638
780.00,-0.0638
778.00,-0.0638
776.00,-0.0639
774.00,-0.0639
772.00,-0.0639
770.00,-0.0639
768.00,-0.0639
766.00,-0.0639
764.00,-0.0639
762.00,-0.0639
760.00,-0.0638
758.00,-0.0638
756.00,-0.0638
754.00,-0.0638
752.00,-0.0638
750.00,-0.0638
748.00,-0.0638
746.00,-0.0638
744.00,-0.0638
742.00,-0.0638
740.00,-0.0638
738.00,-0.0638
736.00,-0.0638
734.00,-0.0637
732.00,-0.0637
730.00,-0.0637
728.00,-0.0637
726.00,-0.0637
724.00,-0.0637
722.00,-0.0638
720.00,-0.0638
718.00,-0.0637
716.00,-0.0637
714.00,-0.0637
712.00,-0.0637
710.00,-0.0637
708.00,-0.0637
706.00,-0.0637
704.00,-0.0637
702.00,-0.0637
700.00,-0.0637
698.00,-0.0637
696.00,-0.0637
694.00,-0.0637
692.00,-0.0636
690.00,-0.0636
688.00,-0.0636
686.00,-0.0636
684.00,-0.0637
682.00,-0.0638
680.00,-0.0638
678.00,-0.0638
676.00,-0.0639
674.00,-0.0638
672.00,-0.0639
670.00,-0.0646
668.00,-0.0658
666.00,-0.0646
664.00,-0.0638
662.00,-0.0636
660.00,-0.0636
658.00,-0.0637
656.00,-0.0637
654.00,-0.0638
652.00,-0.0637
650.00,-0.0637
648.00,-0.0637
646.00,-0.0637
644.00,-0.0637
642.00,-0.0636
640.00,-0.0635
638.00,-0.0635
636.00,-0.0635
634.00,-0.0635
632.00,-0.0635
630.00,-0.0635
628.00,-0.0636
626.00,-0.0636
624.00,-0.0635
622.00,-0.0636
620.00,-0.0636
618.00,-0.0636
616.00,-0.0636
614.00,-0.0635
612.00,-0.0635
610.00,-0.0636
608.00,-0.0635
606.00,-0.0635
604.00,-0.0636
602.00,-0.0635
600.00,-0.0635
598.00,-0.0635
596.00,-0.0636
594.00,-0.0637
592.00,-0.0637
590.00,-0.0638
588.00,-0.0638
586.00,-0.0637
584.00,-0.0638
582.00,-0.0639
580.00,-0.0638
578.00,-0.0639
576.00,-0.0639
574.00,-0.0639
572.00,-0.0639
570.00,-0.0638
568.00,-0.0640
566.00,-0.0639
564.00,-0.0639
562.00,-0.0640
560.00,-0.0639
558.00,-0.0639
556.00,-0.0641
554.00,-0.0640
552.00,-0.0640
550.00,-0.0641
548.00,-0.0640
546.00,-0.0639
544.00,-0.0640
542.00,-0.0641
540.00,-0.0639
538.00,-0.0639
536.00,-0.0644
534.00,-0.0642
532.00,-0.0639
530.00,-0.0646
528.00,-0.0646
526.00,-0.0639
524.00,-0.0641
522.00,-0.0645
520.00,-0.0642
518.00,-0.0641
516.00,-0.0644
514.00,-0.0647
512.00,-0.0642
510.00,-0.0641
508.00,-0.0645
506.00,-0.0641
504.00,-0.0639
502.00,-0.0644
500.00,-0.0643
