Created as New Dataset,Sample 043 By Analyst Date Wednesday, April 02 2025
cm-1,A
4000.00,-0.0640
3998.00,-0.0640
3996.00,-0.0640
3994.00,-0.0639
3992.00,-0.0639
3990.00,-0.0639
3988.00,-0.0639
3986.00,-0.0638
3984.00,-0.0638
3982.00,-0.0638
3980.00,-0.0639
3978.00,-0.0639
3976.00,-0.0639
3974.00,-0.0639
3972.00,-0.0639
3970.00,-0.0639
3968.00,-0.0639
3966.00,-0.0639
3964.00,-0.0639
3962.00,-0.0639
3960.00,-0.0639
3958.00,-0.0639
3956.00,-0.0639
3954.00,-0.0639
3952.00,-0.0639
3950.00,-0.0639
3948.00,-0.0639
3946.00,-0.0639
3944.00,-0.0639
3942.00,-0.0640
3940.00,-0.0640
3938.00,-0.0640
3936.00,-0.0640
3934.00,-0.0640
3932.00,-0.0640
3930.00,-0.0640
3928.00,-0.0639
3926.00,-0.0639
3924.00,-0.0639
3922.00,-0.0639
3920.00,-0.0639
3918.00,-0.0638
3916.00,-0.0638
3914.00,-0.0638
3912.00,-0.0638
3910.00,-0.0638
3908.00,-0.0639
3906.00,-0.0639
3904.00,-0.0639
3902.00,-0.0638
3900.00,-0.0637
3898.00,-0.0637
3896.00,-0.0637
3894.00,-0.0637
3892.00,-0.0637
3890.00,-0.0638
3888.00,-0.0637
3886.00,-0.0637
3884.00,-0.0638
3882.00,-0.0637
3880.00,-0.0637
3878.00,-0.0638
3876.00,-0.0638
3874.00,-0.0639
3872.00,-0.0639
3870.00,-0.0638
3868.00,-0.0638
3866.00,-0.0637
3864.00,-0.0637
3862.00,-0.0637
3860.00,-0.0637
3858.00,-0.0638
3856.00,-0.0639
3854.00,-0.0638
3852.00,-0.0638
3850.00,-0.0637
3848.00,-0.0637
3846.00,-0.0638
3844.00,-0.0640
3842.00,-0.0640
3840.00,-0.0640
3838.00,-0.0639
3836.00,-0.0638
3834.00,-0.0637
3832.00,-0.0637
3830.00,-0.0637
3828.00,-0.0637
3826.00,-0.0638
3824.00,-0.0638
3822.00,-0.0637
3820.00,-0.0638
3818.00,-0.0637
3816.00,-0.0636
3814.00,-0.0637
3812.00,-0.0636
3810.00,-0.0637
3808.00,-0.0637
3806.00,-0.0638
3804.00,-0.0637
3802.00,-0.0636
3800.00,-0.0636
3798.00,-0.0635
3796.00,-0.0635
3794.00,-0.0636
3792.00,-0.0636
3790.00,-0.0636
3788.00,-0.0637
3786.00,-0.0637
3784.00,-0.0638
3782.00,-0.0638
3780.00,-0.0638
3778.00,-0.0638
3776.00,-0.0637
3774.00,-0.0637
3772.00,-0.0638
3770.00,-0.0637
3768.00,-0.0637
3766.00,-0.0636
3764.00,-0.0637
3762.00,-0.0637
3760.00,-0.0637
3758.00,-0.0638
3756.00,-0.0639
3754.00,-0.0639
3752.00,-0.0639
3750.00,-0.0639
3748.00,-0.0638
3746.00,-0.0636
3744.00,-0.0635
3742.00,-0.0636
3740.00,-0.0635
3738.00,-0.0636
3736.00,-0.0637
3734.00,-0.0637
3732.00,-0.0636
3730.00,-0.0635
3728.00,-0.0635
3726.00,-0.0635
3724.00,-0.0635
3722.00,-0.0636
3720.00,-0.0636
3718.00,-0.0636
3716.00,-0.0636
3714.00,-0.0635
3712.00,-0.0634
3710.00,-0.0633
3708.00,-0.0633
3706.00,-0.0634
3704.00,-0.0634
3702.00,-0.0635
3700.00,-0.0635
3698.00,-0.0634
3696.00,-0.0634
3694.00,-0.0635
3692.00,-0.0636
3690.00,-0.0636
3688.00,-0.0636
3686.00,-0.0635
3684.00,-0.0634
3682.00,-0.0635
3680.00,-0.0636
3678.00,-0.0636
3676.00,-0.0634
3674.00,-0.0634
3672.00,-0.0633
3670.00,-0.0632
3668.00,-0.0633
3666.00,-0.0633
3664.00,-0.0633
3662.00,-0.0634
3660.00,-0.0635
3658.00,-0.0635
3656.00,-0.0636
3654.00,-0.0637
3652.00,-0.0637
3650.00,-0.0636
3648.00,-0.0635
3646.00,-0.0634
3644.00,-0.0634
3642.00,-0.0634
3640.00,-0.0635
3638.00,-0.0635
3636.00,-0.0635
3634.00,-0.0635
3632.00,-0.0636
3630.00,-0.0635
3628.00,-0.0635
3626.00,-0.0635
3624.00,-0.0636
3622.00,-0.0638
3620.00,-0.0639
3618.00,-0.0639
3616.00,-0.0637
3614.00,-0.0636
3612.00,-0.0636
3610.00,-0.0635
3608.00,-0.0635
3606.00,-0.0635
3604.00,-0.0636
3602.00,-0.0637
3600.00,-0.0638
3598.00,-0.0638
3596.00,-0.0638
3594.00,-0.0638
3592.00,-0.0639
3590.00,-0.0639
3588.00,-0.0638
3586.00,-0.0638
3584.00,-0.0637
3582.00,-0.0637
3580.00,-0.0637
3578.00,-0.0637
3576.00,-0.0637
3574.00,-0.0637
3572.00,-0.0638
3570.00,-0.0639
3568.00,-0.0639
3566.00,-0.0639
3564.00,-0.0638
3562.00,-0.0638
3560.00,-0.0639
3558.00,-0.0639
3556.00,-0.0639
3554.00,-0.0639
3552.00,-0.0638
3550.00,-0.0638
3548.00,-0.0638
3546.00,-0.0637
3544.00,-0.0637
3542.00,-0.0637
3540.00,-0.0637
3538.00,-0.0637
3536.00,-0.0637
3534.00,-0.0638
3532.00,-0.0638
3530.00,-0.0638
3528.00,-0.0638
3526.00,-0.0638
3524.00,-0.0638
3522.00,-0.0638
3520.00,-0.0638
3518.00,-0.0637
3516.00,-0.0637
3514.00,-0.0637
3512.00,-0.0638
3510.00,-0.0638
3508.00,-0.0638
3506.00,-0.0638
3504.00,-0.0638
3502.00,-0.0639
3500.00,-0.0639
3498.00,-0.0639
3496.00,-0.0639
3494.00,-0.0639
3492.00,-0.0639
3490.00,-0.0639
3488.00,-0.0639
3486.00,-0.0639
3484.00,-0.0639
3482.00,-0.0638
3480.00,-0.0639
3478.00,-0.0639
3476.00,-0.0639
3474.00,-0.0639
3472.00,-0.0640
3470.00,-0.0640
3468.00,-0.0640
3466.00,-0.0640
3464.00,-0.0640
3462.00,-0.0640
3460.00,-0.0640
3458.00,-0.0639
3456.00,-0.0639
3454.00,-0.0639
3452.00,-0.0638
3450.00,-0.0638
3448.00,-0.0638
3446.00,-0.0638
3444.00,-0.0638
3442.00,-0.0639
3440.00,-0.0639
3438.00,-0.0639
3436.00,-0.0639
3434.00,-0.0639
3432.00,-0.0639
3430.00,-0.0639
3428.00,-0.0639
3426.00,-0.0639
3424.00,-0.0638
3422.00,-0.0638
3420.00,-0.0638
3418.00,-0.0638
3416.00,-0.0638
3414.00,-0.0638
3412.00,-0.0639
3410.00,-0.0639
3408.00,-0.0639
3406.00,-0.0639
3404.00,-0.0639
3402.00,-0.0639
3400.00,-0.0639
3398.00,-0.0639
3396.00,-0.0638
3394.00,-0.0638
3392.00,-0.0638
3390.00,-0.0638
3388.00,-0.0638
3386.00,-0.0638
3384.00,-0.0638
3382.00,-0.0638
3380.00,-0.0638
3378.00,-0.0639
3376.00,-0.0639
3374.00,-0.0639
3372.00,-0.0639
3370.00,-0.0639
3368.00,-0.0638
3366.00,-0.0638
3364.00,-0.0637
3362.00,-0.0637
3360.00,-0.0637
3358.00,-0.0636
3356.00,-0.0636
3354.00,-0.0636
3352.00,-0.0636
3350.00,-0.0636
3348.00,-0.0637
3346.00,-0.0637
3344.00,-0.0637
3342.00,-0.0637
3340.00,-0.0637
3338.00,-0.0638
3336.00,-0.0637
3334.00,-0.0637
3332.00,-0.0637
3330.00,-0.0637
3328.00,-0.0637
3326.00,-0.0637
3324.00,-0.0637
3322.00,-0.0637
3320.00,-0.0638
3318.00,-0.0638
3316.00,-0.0638
3314.00,-0.0638
3312.00,-0.0639
3310.00,-0.0639
3308.00,-0.0639
3306.00,-0.0639
3304.00,-0.0639
3302.00,-0.0639
3300.00,-0.0639
3298.00,-0.0639
3296.00,-0.0638
3294.00,-0.0638
3292.00,-0.0638
3290.00,-0.0638
3288.00,-0.0638
3286.00,-0.0638
3284.00,-0.0638
3282.00,-0.0638
3280.00,-0.0638
3278.00,-0.0638
3276.00,-0.0638
3274.00,-0.0638
3272.00,-0.0638
3270.00,-0.0637
3268.00,-0.0637
3266.00,-0.0636
3264.00,-0.0636
3262.00,-0.0636
3260.00,-0.0636
3258.00,-0.0636
3256.00,-0.0636
3254.00,-0.0636
3252.00,-0.0637
3250.00,-0.0637
3248.00,-0.0637
3246.00,-0.0637
3244.00,-0.0637
3242.00,-0.0637
3240.00,-0.0637
3238.00,-0.0637
3236.00,-0.0637
3234.00,-0.0637
3232.00,-0.0637
3230.00,-0.0637
3228.00,-0.0637
3226.00,-0.0637
3224.00,-0.0638
3222.00,-0.0638
3220.00,-0.0638
3218.00,-0.0638
3216.00,-0.0638
3214.00,-0.0639
3212.00,-0.0639
3210.00,-0.0638
3208.00,-0.0638
3206.00,-0.0638
3204.00,-0.0638
3202.00,-0.0638
3200.00,-0.0638
3198.00,-0.0638
3196.00,-0.0638
3194.00,-0.0638
3192.00,-0.0638
3190.00,-0.0639
3188.00,-0.0639
3186.00,-0.0639
3184.00,-0.0639
3182.00,-0.0638
3180.00,-0.0638
3178.00,-0.0638
3176.00,-0.0637
3174.00,-0.0637
3172.00,-0.0637
3170.00,-0.0637
3168.00,-0.0637
3166.00,-0.0637
3164.00,-0.0637
3162.00,-0.0637
3160.00,-0.0637
3158.00,-0.0638
3156.00,-0.0638
3154.00,-0.0638
3152.00,-0.0638
3150.00,-0.0638
3148.00,-0.0638
3146.00,-0.0638
3144.00,-0.0638
3142.00,-0.0638
3140.00,-0.0638
3138.00,-0.0637
3136.00,-0.0638
3134.00,-0.0638
3132.00,-0.0638
3130.00,-0.0638
3128.00,-0.0638
3126.00,-0.0639
3124.00,-0.0639
3122.00,-0.0639
3120.00,-0.0639
3118.00,-0.0639
3116.00,-0.0639
3114.00,-0.0639
3112.00,-0.0639
3110.00,-0.0639
3108.00,-0.0638
3106.00,-0.0638
3104.00,-0.0638
3102.00,-0.0639
3100.00,-0.0639
3098.00,-0.0639
3096.00,-0.0639
3094.00,-0.0639
3092.00,-0.0639
3090.00,-0.0639
3088.00,-0.0639
3086.00,-0.0639
3084.00,-0.0639
3082.00,-0.0638
3080.00,-0.0638
3078.00,-0.0638
3076.00,-0.0638
3074.00,-0.0637
3072.00,-0.0638
3070.00,-0.0638
3068.00,-0.0638
3066.00,-0.0638
3064.00,-0.0638
3062.00,-0.0638
3060.00,-0.0639
3058.00,-0.0639
3056.00,-0.0639
3054.00,-0.0639
3052.00,-0.0638
3050.00,-0.0638
3048.00,-0.0638
3046.00,-0.0638
3044.00,-0.0637
3042.00,-0.0637
3040.00,-0.0637
3038.00,-0.0637
3036.00,-0.0637
3034.00,-0.0637
3032.00,-0.0637
3030.00,-0.0637
3028.00,-0.0637
3026.00,-0.0636
3024.00,-0.0636
3022.00,-0.0635
3020.00,-0.0634
3018.00,-0.0634
3016.00,-0.0633
3014.00,-0.0632
3012.00,-0.0631
3010.00,-0.0631
3008.00,-0.0630
3006.00,-0.0629
3004.00,-0.0629
3002.00,-0.0628
3000.00,-0.0628
2998.00,-0.0627
2996.00,-0.0626
2994.00,-0.0626
2992.00,-0.0624
2990.00,-0.0623
2988.00,-0.0622
2986.00,-0.0622
2984.00,-0.0622
2982.00,-0.0622
2980.00,-0.0622
2978.00,-0.0622
2976.00,-0.0622
2974.00,-0.0622
2972.00,-0.0622
2970.00,-0.0623
2968.00,-0.0624
2966.00,-0.0624
2964.00,-0.0625
2962.00,-0.0625
2960.00,-0.0625
2958.00,-0.0625
2956.00,-0.0626
2954.00,-0.0626
2952.00,-0.0626
2950.00,-0.0626
2948.00,-0.0627
2946.00,-0.0627
2944.00,-0.0627
2942.00,-0.0627
2940.00,-0.0628
2938.00,-0.0628
2936.00,-0.0628
2934.00,-0.0628
2932.00,-0.0628
2930.00,-0.0628
2928.00,-0.0628
2926.00,-0.0627
2924.00,-0.0627
2922.00,-0.0626
2920.00,-0.0626
2918.00,-0.0626
2916.00,-0.0626
2914.00,-0.0626
2912.00,-0.0626
2910.00,-0.0626
2908.00,-0.0626
2906.00,-0.0625
2904.00,-0.0625
2902.00,-0.0624
2900.00,-0.0625
2898.00,-0.0625
2896.00,-0.0626
2894.00,-0.0626
2892.00,-0.0626
2890.00,-0.0626
2888.00,-0.0626
2886.00,-0.0626
2884.00,-0.0626
2882.00,-0.0627
2880.00,-0.0627
2878.00,-0.0628
2876.00,-0.0629
2874.00,-0.0629
2872.00,-0.0630
2870.00,-0.0630
2868.00,-0.0630
2866.00,-0.0630
2864.00,-0.0630
2862.00,-0.0630
2860.00,-0.0631
2858.00,-0.0631
2856.00,-0.0632
2854.00,-0.0632
2852.00,-0.0633
2850.00,-0.0633
2848.00,-0.0633
2846.00,-0.0634
2844.00,-0.0634
2842.00,-0.0635
2840.00,-0.0635
2838.00,-0.0635
2836.00,-0.0636
2834.00,-0.0636
2832.00,-0.0636
2830.00,-0.0635
2828.00,-0.0635
2826.00,-0.0635
2824.00,-0.0635
2822.00,-0.0635
2820.00,-0.0635
2818.00,-0.0635
2816.00,-0.0635
2814.00,-0.0635
2812.00,-0.0635
2810.00,-0.0635
2808.00,-0.0635
2806.00,-0.0635
2804.00,-0.0635
2802.00,-0.0635
2800.00,-0.0635
2798.00,-0.0635
2796.00,-0.0635
2794.00,-0.0634
2792.00,-0.0634
2790.00,-0.0635
2788.00,-0.0635
2786.00,-0.0635
2784.00,-0.0635
2782.00,-0.0636
2780.00,-0.0636
2778.00,-0.0636
2776.00,-0.0636
2774.00,-0.0636
2772.00,-0.0636
2770.00,-0.0636
2768.00,-0.0636
2766.00,-0.0635
2764.00,-0.0635
2762.00,-0.0635
2760.00,-0.0635
2758.00,-0.0635
2756.00,-0.0636
2754.00,-0.0636
2752.00,-0.0636
2750.00,-0.0636
2748.00,-0.0636
2746.00,-0.0636
2744.00,-0.0637
2742.00,-0.0637
2740.00,-0.0637
2738.00,-0.0636
2736.00,-0.0636
2734.00,-0.0636
2732.00,-0.0635
2730.00,-0.0635
2728.00,-0.0635
2726.00,-0.0635
2724.00,-0.0635
2722.00,-0.0635
2720.00,-0.0635
2718.00,-0.0635
2716.00,-0.0635
2714.00,-0.0635
2712.00,-0.0635
2710.00,-0.0635
2708.00,-0.0635
2706.00,-0.0634
2704.00,-0.0634
2702.00,-0.0634
2700.00,-0.0634
2698.00,-0.0634
2696.00,-0.0634
2694.00,-0.0634
2692.00,-0.0634
2690.00,-0.0635
2688.00,-0.0635
2686.00,-0.0635
2684.00,-0.0635
2682.00,-0.0635
2680.00,-0.0635
2678.00,-0.0635
2676.00,-0.0635
2674.00,-0.0635
2672.00,-0.0635
2670.00,-0.0635
2668.00,-0.0635
2666.00,-0.0635
2664.00,-0.0635
2662.00,-0.0635
2660.00,-0.0635
2658.00,-0.0635
2656.00,-0.0635
2654.00,-0.0635
2652.00,-0.0635
2650.00,-0.0635
2648.00,-0.0635
2646.00,-0.0635
2644.00,-0.0635
2642.00,-0.0634
2640.00,-0.0634
2638.00,-0.0634
2636.00,-0.0633
2634.00,-0.0633
2632.00,-0.0633
2630.00,-0.0633
2628.00,-0.0633
2626.00,-0.0633
2624.00,-0.0634
2622.00,-0.0634
2620.00,-0.0634
2618.00,-0.0634
2616.00,-0.0634
2614.00,-0.0634
2612.00,-0.0633
2610.00,-0.0633
2608.00,-0.0633
2606.00,-0.0633
2604.00,-0.0633
2602.00,-0.0633
2600.00,-0.0633
2598.00,-0.0634
2596.00,-0.0634
2594.00,-0.0634
2592.00,-0.0634
2590.00,-0.0634
2588.00,-0.0634
2586.00,-0.0634
2584.00,-0.0634
2582.00,-0.0634
2580.00,-0.0634
2578.00,-0.0634
2576.00,-0.0633
2574.00,-0.0633
2572.00,-0.0633
2570.00,-0.0633
2568.00,-0.0633
2566.00,-0.0634
2564.00,-0.0634
2562.00,-0.0634
2560.00,-0.0634
2558.00,-0.0634
2556.00,-0.0634
2554.00,-0.0634
2552.00,-0.0634
2550.00,-0.0633
2548.00,-0.0633
2546.00,-0.0633
2544.00,-0.0632
2542.00,-0.0632
2540.00,-0.0632
2538.00,-0.0632
2536.00,-0.0632
2534.00,-0.0632
2532.00,-0.0632
2530.00,-0.0632
2528.00,-0.0632
2526.00,-0.0632
2524.00,-0.0632
2522.00,-0.0632
2520.00,-0.0632
2518.00,-0.0632
2516.00,-0.0632
2514.00,-0.0631
2512.00,-0.0631
2510.00,-0.0631
2508.00,-0.0631
2506.00,-0.0631
2504.00,-0.0631
2502.00,-0.0632
2500.00,-0.0632
2498.00,-0.0632
2496.00,-0.0632
2494.00,-0.0632
2492.00,-0.0632
2490.00,-0.0632
2488.00,-0.0632
2486.00,-0.0631
2484.00,-0.0631
2482.00,-0.0631
2480.00,-0.0631
2478.00,-0.0631
2476.00,-0.0631
2474.00,-0.0631
2472.00,-0.0631
2470.00,-0.0631
2468.00,-0.0631
2466.00,-0.0632
2464.00,-0.0631
2462.00,-0.0631
2460.00,-0.0631
2458.00,-0.0631
2456.00,-0.0630
2454.00,-0.0630
2452.00,-0.0630
2450.00,-0.0629
2448.00,-0.0629
2446.00,-0.0629
2444.00,-0.0629
2442.00,-0.0630
2440.00,-0.0630
2438.00,-0.0630
2436.00,-0.0630
2434.00,-0.0631
2432.00,-0.0631
2430.00,-0.0631
2428.00,-0.0631
2426.00,-0.0631
2424.00,-0.0631
2422.00,-0.0630
2420.00,-0.0630
2418.00,-0.0631
2416.00,-0.0631
2414.00,-0.0631
2412.00,-0.0631
2410.00,-0.0631
2408.00,-0.0631
2406.00,-0.0631
2404.00,-0.0631
2402.00,-0.0632
2400.00,-0.0631
2398.00,-0.0631
2396.00,-0.0631
2394.00,-0.0631
2392.00,-0.0631
2390.00,-0.0630
2388.00,-0.0629
2386.00,-0.0627
2384.00,-0.0625
2382.00,-0.0625
2380.00,-0.0628
2378.00,-0.0633
2376.00,-0.0637
2374.00,-0.0637
2372.00,-0.0633
2370.00,-0.0630
2368.00,-0.0629
2366.00,-0.0630
2364.00,-0.0630
2362.00,-0.0630
2360.00,-0.0629
2358.00,-0.0628
2356.00,-0.0629
2354.00,-0.0631
2352.00,-0.0634
2350.00,-0.0633
2348.00,-0.0624
2346.00,-0.0624
2344.00,-0.0629
2342.00,-0.0626
2340.00,-0.0627
2338.00,-0.0628
2336.00,-0.0629
2334.00,-0.0628
2332.00,-0.0628
2330.00,-0.0628
2328.00,-0.0625
2326.00,-0.0622
2324.00,-0.0621
2322.00,-0.0623
2320.00,-0.0625
2318.00,-0.0624
2316.00,-0.0624
2314.00,-0.0625
2312.00,-0.0626
2310.00,-0.0625
2308.00,-0.0625
2306.00,-0.0624
2304.00,-0.0624
2302.00,-0.0624
2300.00,-0.0624
2298.00,-0.0625
2296.00,-0.0625
2294.00,-0.0626
2292.00,-0.0626
2290.00,-0.0627
2288.00,-0.0627
2286.00,-0.0627
2284.00,-0.0627
2282.00,-0.0627
2280.00,-0.0628
2278.00,-0.0628
2276.00,-0.0628
2274.00,-0.0628
2272.00,-0.0628
2270.00,-0.0628
2268.00,-0.0627
2266.00,-0.0627
2264.00,-0.0627
2262.00,-0.0627
2260.00,-0.0627
2258.00,-0.0627
2256.00,-0.0627
2254.00,-0.0627
2252.00,-0.0627
2250.00,-0.0628
2248.00,-0.0628
2246.00,-0.0628
2244.00,-0.0628
2242.00,-0.0628
2240.00,-0.0628
2238.00,-0.0628
2236.00,-0.0628
2234.00,-0.0627
2232.00,-0.0627
2230.00,-0.0627
2228.00,-0.0627
2226.00,-0.0627
2224.00,-0.0627
2222.00,-0.0627
2220.00,-0.0627
2218.00,-0.0628
2216.00,-0.0628
2214.00,-0.0628
2212.00,-0.0628
2210.00,-0.0628
2208.00,-0.0628
2206.00,-0.0627
2204.00,-0.0627
2202.00,-0.0627
2200.00,-0.0627
2198.00,-0.0626
2196.00,-0.0626
2194.00,-0.0626
2192.00,-0.0626
2190.00,-0.0626
2188.00,-0.0626
2186.00,-0.0626
2184.00,-0.0626
2182.00,-0.0626
2180.00,-0.0626
2178.00,-0.0626
2176.00,-0.0626
2174.00,-0.0625
2172.00,-0.0625
2170.00,-0.0625
2168.00,-0.0625
2166.00,-0.0625
2164.00,-0.0625
2162.00,-0.0625
2160.00,-0.0626
2158.00,-0.0626
2156.00,-0.0626
2154.00,-0.0626
2152.00,-0.0626
2150.00,-0.0626
2148.00,-0.0626
2146.00,-0.0626
2144.00,-0.0626
2142.00,-0.0626
2140.00,-0.0626
2138.00,-0.0625
2136.00,-0.0625
2134.00,-0.0625
2132.00,-0.0625
2130.00,-0.0625
2128.00,-0.0625
2126.00,-0.0625
2124.00,-0.0626
2122.00,-0.0626
2120.00,-0.0626
2118.00,-0.0626
2116.00,-0.0626
2114.00,-0.0626
2112.00,-0.0626
2110.00,-0.0625
2108.00,-0.0625
2106.00,-0.0625
2104.00,-0.0625
2102.00,-0.0624
2100.00,-0.0624
2098.00,-0.0624
2096.00,-0.0624
2094.00,-0.0624
2092.00,-0.0624
2090.00,-0.0625
2088.00,-0.0625
2086.00,-0.0625
2084.00,-0.0625
2082.00,-0.0625
2080.00,-0.0625
2078.00,-0.0625
2076.00,-0.0624
2074.00,-0.0624
2072.00,-0.0624
2070.00,-0.0624
2068.00,-0.0624
2066.00,-0.0624
2064.00,-0.0624
2062.00,-0.0625
2060.00,-0.0625
2058.00,-0.0625
2056.00,-0.0625
2054.00,-0.0625
2052.00,-0.0625
2050.00,-0.0625
2048.00,-0.0625
2046.00,-0.0625
2044.00,-0.0625
2042.00,-0.0624
2040.00,-0.0624
2038.00,-0.0624
2036.00,-0.0625
2034.00,-0.0625
2032.00,-0.0625
2030.00,-0.0625
2028.00,-0.0625
2026.00,-0.0625
2024.00,-0.0625
2022.00,-0.0625
2020.00,-0.0625
2018.00,-0.0625
2016.00,-0.0624
2014.00,-0.0624
2012.00,-0.0623
2010.00,-0.0623
2008.00,-0.0623
2006.00,-0.0623
2004.00,-0.0623
2002.00,-0.0624
2000.00,-0.0624
1998.00,-0.0624
1996.00,-0.0624
1994.00,-0.0625
1992.00,-0.0625
1990.00,-0.0625
1988.00,-0.0625
1986.00,-0.0625
1984.00,-0.0625
1982.00,-0.0625
1980.00,-0.0625
1978.00,-0.0625
1976.00,-0.0625
1974.00,-0.0625
1972.00,-0.0625
1970.00,-0.0625
1968.00,-0.0625
1966.00,-0.0625
1964.00,-0.0626
1962.00,-0.0626
1960.00,-0.0626
1958.00,-0.0626
1956.00,-0.0626
1954.00,-0.0626
1952.00,-0.0626
1950.00,-0.0626
1948.00,-0.0626
1946.00,-0.0626
1944.00,-0.0626
1942.00,-0.0626
1940.00,-0.0626
1938.00,-0.0626
1936.00,-0.0626
1934.00,-0.0625
1932.00,-0.0625
1930.00,-0.0625
1928.00,-0.0625
1926.00,-0.0624
1924.00,-0.0624
1922.00,-0.0624
1920.00,-0.0624
1918.00,-0.0623
1916.00,-0.0623
1914.00,-0.0623
1912.00,-0.0623
1910.00,-0.0623
1908.00,-0.0624
1906.00,-0.0624
1904.00,-0.0624
1902.00,-0.0624
1900.00,-0.0624
1898.00,-0.0624
1896.00,-0.0624
1894.00,-0.0624
1892.00,-0.0624
1890.00,-0.0624
1888.00,-0.0624
1886.00,-0.0624
1884.00,-0.0624
1882.00,-0.0624
1880.00,-0.0625
1878.00,-0.0625
1876.00,-0.0625
1874.00,-0.0625
1872.00,-0.0626
1870.00,-0.0626
1868.00,-0.0626
1866.00,-0.0626
1864.00,-0.0626
1862.00,-0.0626
1860.00,-0.0626
1858.00,-0.0625
1856.00,-0.0625
1854.00,-0.0626
1852.00,-0.0626
1850.00,-0.0626
1848.00,-0.0626
1846.00,-0.0626
1844.00,-0.0626
1842.00,-0.0626
1840.00,-0.0626
1838.00,-0.0626
1836.00,-0.0626
1834.00,-0.0626
1832.00,-0.0626
1830.00,-0.0626
1828.00,-0.0626
1826.00,-0.0625
1824.00,-0.0625
1822.00,-0.0626
1820.00,-0.0626
1818.00,-0.0626
1816.00,-0.0626
1814.00,-0.0627
1812.00,-0.0627
1810.00,-0.0627
1808.00,-0.0627
1806.00,-0.0628
1804.00,-0.0628
1802.00,-0.0628
1800.00,-0.0628
1798.00,-0.0628
1796.00,-0.0628
1794.00,-0.0630
1792.00,-0.0645
1790.00,-0.0652
1788.00,-0.0637
1786.00,-0.0631
1784.00,-0.0630
1782.00,-0.0629
1780.00,-0.0629
1778.00,-0.0629
1776.00,-0.0629
1774.00,-0.0629
1772.00,-0.0629
1770.00,-0.0629
1768.00,-0.0629
1766.00,-0.0629
1764.00,-0.0628
1762.00,-0.0628
1760.00,-0.0628
1758.00,-0.0628
1756.00,-0.0628
1754.00,-0.0628
1752.00,-0.0628
1750.00,-0.0628
1748.00,-0.0628
1746.00,-0.0628
1744.00,-0.0628
1742.00,-0.0628
1740.00,-0.0628
1738.00,-0.0628
1736.00,-0.0628
1734.00,-0.0627
1732.00,-0.0628
1730.00,-0.0628
1728.00,-0.0628
1726.00,-0.0628
1724.00,-0.0628
1722.00,-0.0628
1720.00,-0.0628
1718.00,-0.0628
1716.00,-0.0628
1714.00,-0.0629
1712.00,-0.0629
1710.00,-0.0629
1708.00,-0.0629
1706.00,-0.0629
1704.00,-0.0629
1702.00,-0.0629
1700.00,-0.0628
1698.00,-0.0628
1696.00,-0.0628
1694.00,-0.0628
1692.00,-0.0628
1690.00,-0.0629
1688.00,-0.0629
1686.00,-0.0629
1684.00,-0.0629
1682.00,-0.0629
1680.00,-0.0629
1678.00,-0.0629
1676.00,-0.0628
1674.00,-0.0628
1672.00,-0.0628
1670.00,-0.0628
1668.00,-0.0627
1666.00,-0.0627
1664.00,-0.0627
1662.00,-0.0627
1660.00,-0.0627
1658.00,-0.0627
1656.00,-0.0628
1654.00,-0.0627
1652.00,-0.0628
1650.00,-0.0628
1648.00,-0.0628
1646.00,-0.0628
1644.00,-0.0628
1642.00,-0.0628
1640.00,-0.0628
1638.00,-0.0628
1636.00,-0.0628
1634.00,-0.0628
1632.00,-0.0628
1630.00,-0.0628
1628.00,-0.0628
1626.00,-0.0629
1624.00,-0.0629
1622.00,-0.0629
1620.00,-0.0629
1618.00,-0.0629
1616.00,-0.0629
1614.00,-0.0628
1612.00,-0.0628
1610.00,-0.0628
1608.00,-0.0628
1606.00,-0.0628
1604.00,-0.0628
1602.00,-0.0628
1600.00,-0.0628
1598.00,-0.0628
1596.00,-0.0628
1594.00,-0.0628
1592.00,-0.0628
1590.00,-0.0628
1588.00,-0.0628
1586.00,-0.0628
1584.00,-0.0628
1582.00,-0.0628
1580.00,-0.0628
1578.00,-0.0628
1576.00,-0.0628
1574.00,-0.0628
1572.00,-0.0628
1570.00,-0.0628
1568.00,-0.0628
1566.00,-0.0628
1564.00,-0.0628
1562.00,-0.0628
1560.00,-0.0628
1558.00,-0.0628
1556.00,-0.0628
1554.00,-0.0628
1552.00,-0.0628
1550.00,-0.0629
1548.00,-0.0629
1546.00,-0.0629
1544.00,-0.0629
1542.00,-0.0629
1540.00,-0.0629
1538.00,-0.0629
1536.00,-0.0629
1534.00,-0.0629
1532.00,-0.0629
1530.00,-0.0629
1528.00,-0.0629
1526.00,-0.0629
1524.00,-0.0629
1522.00,-0.0629
1520.00,-0.0629
1518.00,-0.0628
1516.00,-0.0628
1514.00,-0.0628
1512.00,-0.0628
1510.00,-0.0627
1508.00,-0.0627
1506.00,-0.0627
1504.00,-0.0627
1502.00,-0.0627
1500.00,-0.0626
1498.00,-0.0625
1496.00,-0.0624
1494.00,-0.0623
1492.00,-0.0624
1490.00,-0.0625
1488.00,-0.0626
1486.00,-0.0626
1484.00,-0.0627
1482.00,-0.0627
1480.00,-0.0627
1478.00,-0.0627
1476.00,-0.0627
1474.00,-0.0628
1472.00,-0.0628
1470.00,-0.0628
1468.00,-0.0628
1466.00,-0.0628
1464.00,-0.0628
1462.00,-0.0628
1460.00,-0.0628
1458.00,-0.0628
1456.00,-0.0627
1454.00,-0.0626
1452.00,-0.0626
1450.00,-0.0626
1448.00,-0.0626
1446.00,-0.0627
1444.00,-0.0627
1442.00,-0.0627
1440.00,-0.0628
1438.00,-0.0627
1436.00,-0.0627
1434.00,-0.0627
1432.00,-0.0627
1430.00,-0.0627
1428.00,-0.0627
1426.00,-0.0627
1424.00,-0.0627
1422.00,-0.0627
1420.00,-0.0626
1418.00,-0.0625
1416.00,-0.0625
1414.00,-0.0624
1412.00,-0.0624
1410.00,-0.0623
1408.00,-0.0622
1406.00,-0.0622
1404.00,-0.0622
1402.00,-0.0623
1400.00,-0.0624
1398.00,-0.0624
1396.00,-0.0623
1394.00,-0.0622
1392.00,-0.0624
1390.00,-0.0625
1388.00,-0.0625
1386.00,-0.0625
1384.00,-0.0625
1382.00,-0.0624
1380.00,-0.0625
1378.00,-0.0625
1376.00,-0.0626
1374.00,-0.0626
1372.00,-0.0627
1370.00,-0.0627
1368.00,-0.0628
1366.00,-0.0628
1364.00,-0.0628
1362.00,-0.0628
1360.00,-0.0628
1358.00,-0.0628
1356.00,-0.0628
1354.00,-0.0628
1352.00,-0.0628
1350.00,-0.0628
1348.00,-0.0628
1346.00,-0.0629
1344.00,-0.0629
1342.00,-0.0629
1340.00,-0.0629
1338.00,-0.0629
1336.00,-0.0630
1334.00,-0.0630
1332.00,-0.0630
1330.00,-0.0630
1328.00,-0.0630
1326.00,-0.0630
1324.00,-0.0630
1322.00,-0.0629
1320.00,-0.0629
1318.00,-0.0629
1316.00,-0.0630
1314.00,-0.0630
1312.00,-0.0630
1310.00,-0.0630
1308.00,-0.0630
1306.00,-0.0630
1304.00,-0.0630
1302.00,-0.0630
1300.00,-0.0630
1298.00,-0.0630
1296.00,-0.0630
1294.00,-0.0629
1292.00,-0.0629
1290.00,-0.0629
1288.00,-0.0629
1286.00,-0.0629
1284.00,-0.0628
1282.00,-0.0628
1280.00,-0.0628
1278.00,-0.0628
1276.00,-0.0628
1274.00,-0.0628
1272.00,-0.0628
1270.00,-0.0627
1268.00,-0.0626
1266.00,-0.0625
1264.00,-0.0624
1262.00,-0.0623
1260.00,-0.0623
1258.00,-0.0623
1256.00,-0.0624
1254.00,-0.0624
1252.00,-0.0624
1250.00,-0.0624
1248.00,-0.0625
1246.00,-0.0626
1244.00,-0.0626
1242.00,-0.0625
1240.00,-0.0626
1238.00,-0.0626
1236.00,-0.0626
1234.00,-0.0626
1232.00,-0.0626
1230.00,-0.0625
1228.00,-0.0625
1226.00,-0.0625
1224.00,-0.0625
1222.00,-0.0626
1220.00,-0.0626
1218.00,-0.0626
1216.00,-0.0626
1214.00,-0.0627
1212.00,-0.0627
1210.00,-0.0627
1208.00,-0.0627
1206.00,-0.0627
1204.00,-0.0627
1202.00,-0.0627
1200.00,-0.0627
1198.00,-0.0627
1196.00,-0.0628
1194.00,-0.0628
1192.00,-0.0628
1190.00,-0.0628
1188.00,-0.0628
1186.00,-0.0628
1184.00,-0.0629
1182.00,-0.0629
1180.00,-0.0629
1178.00,-0.0629
1176.00,-0.0629
1174.00,-0.0629
1172.00,-0.0629
1170.00,-0.0629
1168.00,-0.0629
1166.00,-0.0629
1164.00,-0.0628
1162.00,-0.0628
1160.00,-0.0628
1158.00,-0.0628
1156.00,-0.0628
1154.00,-0.0628
1152.00,-0.0629
1150.00,-0.0629
1148.00,-0.0628
1146.00,-0.0628
1144.00,-0.0628
1142.00,-0.0628
1140.00,-0.0628
1138.00,-0.0628
1136.00,-0.0628
1134.00,-0.0628
1132.00,-0.0628
1130.00,-0.0627
1128.00,-0.0627
1126.00,-0.0627
1124.00,-0.0627
1122.00,-0.0627
1120.00,-0.0627
1118.00,-0.0626
1116.00,-0.0626
1114.00,-0.0625
1112.00,-0.0624
1110.00,-0.0624
1108.00,-0.0623
1106.00,-0.0622
1104.00,-0.0622
1102.00,-0.0621
1100.00,-0.0621
1098.00,-0.0621
1096.00,-0.0620
1094.00,-0.0620
1092.00,-0.0619
1090.00,-0.0618
1088.00,-0.0617
1086.00,-0.0615
1084.00,-0.0614
1082.00,-0.0613
1080.00,-0.0611
1078.00,-0.0610
1076.00,-0.0610
1074.00,-0.0609
1072.00,-0.0610
1070.00,-0.0610
1068.00,-0.0609
1066.00,-0.0607
1064.00,-0.0609
1062.00,-0.0611
1060.00,-0.0610
1058.00,-0.0609
1056.00,-0.0608
1054.00,-0.0608
1052.00,-0.0607
1050.00,-0.0607
1048.00,-0.0608
1046.00,-0.0610
1044.00,-0.0611
1042.00,-0.0612
1040.00,-0.0613
1038.00,-0.0614
1036.00,-0.0616
1034.00,-0.0617
1032.00,-0.0619
1030.00,-0.0619
1028.00,-0.0619
1026.00,-0.0620
1024.00,-0.0622
1022.00,-0.0623
1020.00,-0.0623
1018.00,-0.0624
1016.00,-0.0624
1014.00,-0.0625
1012.00,-0.0626
1010.00,-0.0627
1008.00,-0.0628
1006.00,-0.0628
1004.00,-0.0630
1002.00,-0.0631
1000.00,-0.0632
998.00,-0.0632
996.00,-0.0633
994.00,-0.0633
992.00,-0.0634
990.00,-0.0634
988.00,-0.0634
986.00,-0.0635
984.00,-0.0635
982.00,-0.0635
980.00,-0.0635
978.00,-0.0636
976.00,-0.0636
974.00,-0.0636
972.00,-0.0637
970.00,-0.0637
968.00,-0.0637
966.00,-0.0637
964.00,-0.0638
962.00,-0.0638
960.00,-0.0638
958.00,-0.0638
956.00,-0.0638
954.00,-0.0638
952.00,-0.0638
950.00,-0.0638
948.00,-0.0638
946.00,-0.0639
944.00,-0.0638
942.00,-0.0638
940.00,-0.0639
938.00,-0.0639
936.00,-0.0639
934.00,-0.0639
932.00,-0.0640
930.00,-0.0640
928.00,-0.0640
926.00,-0.0640
924.00,-0.0640
922.00,-0.0640
920.00,-0.0640
918.00,-0.0639
916.00,-0.0639
914.00,-0.0639
912.00,-0.0639
910.00,-0.0638
908.00,-0.0638
906.00,-0.0638
904.00,-0.0638
902.00,-0.0637
900.00,-0.0637
898.00,-0.0637
896.00,-0.0637
894.00,-0.0637
892.00,-0.0636
890.00,-0.0636
888.00,-0.0637
886.00,-0.0637
884.00,-0.0637
882.00,-0.0636
880.00,-0.0635
878.00,-0.0635
876.00,-0.0636
874.00,-0.0636
872.00,-0.0636
870.00,-0.0636
868.00,-0.0637
866.00,-0.0637
864.00,-0.0638
862.00,-0.0638
860.00,-0.0638
858.00,-0.0638
856.00,-0.0638
854.00,-0.0638
852.00,-0.0639
850.00,-0.0639
848.00,-0.0639
846.00,-0.0639
844.00,-0.0639
842.00,-0.0639
840.00,-0.0639
838.00,-0.0638
836.00,-0.0638
834.00,-0.0637
832.00,-0.0637
830.00,-0.0636
828.00,-0.0635
826.00,-0.0634
824.00,-0.0634
822.00,-0.0634
820.00,-0.0634
818.00,-0.0635
816.00,-0.0636
814.00,-0.0636
812.00,-0.0636
810.00,-0.0636
808.00,-0.0636
806.00,-0.0636
804.00,-0.0636
802.00,-0.0636
800.00,-0.0637
798.00,-0.0637
796.00,-0.0637
794.00,-0.0637
792.00,-0.0637
790.00,-0.0638
788.00,-0.0639
786.00,-0.0639
784.00,-0.0639
782.00,-0.0639
780.00,-0.0640
778.00,-0.0640
776.00,-0.0640
774.00,-0.0640
772.00,-0.0640
770.00,-0.0640
768.00,-0.0640
766.00,-0.0640
764.00,-0.0640
762.00,-0.0639
760.00,-0.0639
758.00,-0.0639
756.00,-0.0639
754.00,-0.0639
752.00,-0.0639
750.00,-0.0639
748.00,-0.0639
746.00,-0.0639
744.00,-0.0638
742.00,-0.0639
740.00,-0.0639
738.00,-0.0639
736.00,-0.0639
734.00,-0.0639
732.00,-0.0639
730.00,-0.0638
728.00,-0.0638
726.00,-0.0638
724.00,-0.0639
722.00,-0.0638
720.00,-0.0638
718.00,-0.0638
716.00,-0.0638
714.00,-0.0638
712.00,-0.0638
710.00,-0.0638
708.00,-0.0638
706.00,-0.0638
704.00,-0.0637
702.00,-0.0637
700.00,-0.0638
698.00,-0.0638
696.00,-0.0639
694.00,-0.0638
692.00,-0.0639
690.00,-0.0638
688.00,-0.0639
686.00,-0.0640
684.00,-0.0641
682.00,-0.0642
680.00,-0.0643
678.00,-0.0642
676.00,-0.0642
674.00,-0.0641
672.00,-0.0645
670.00,-0.0669
668.00,-0.0710
666.00,-0.0675
664.00,-0.0645
662.00,-0.0638
660.00,-0.0640
658.00,-0.0641
656.00,-0.0641
654.00,-0.0641
652.00,-0.0640
650.00,-0.0640
648.00,-0.0640
646.00,-0.0638
644.00,-0.0638
642.00,-0.0638
640.00,-0.0637
638.00,-0.0637
636.00,-0.0636
634.00,-0.0636
632.00,-0.0636
630.00,-0.0636
628.00,-0.0636
626.00,-0.0636
624.00,-0.0635
622.00,-0.0636
620.00,-0.0636
618.00,-0.0635
616.00,-0.0636
614.00,-0.0635
612.00,-0.0635
610.00,-0.0636
608.00,-0.0635
606.00,-0.0635
604.00,-0.0635
602.00,-0.0635
600.00,-0.0636
598.00,-0.0634
596.00,-0.0634
594.00,-0.0636
592.00,-0.0636
590.00,-0.0637
588.00,-0.0637
586.00,-0.0636
584.00,-0.0637
582.00,-0.0638
580.00,-0.0637
578.00,-0.0638
576.00,-0.0638
574.00,-0.0639
572.00,-0.0638
570.00,-0.0637
568.00,-0.0638
566.00,-0.0638
564.00,-0.0637
562.00,-0.0638
560.00,-0.0638
558.00,-0.0638
556.00,-0.0638
554.00,-0.0638
552.00,-0.0639
550.00,-0.0638
548.00,-0.0636
546.00,-0.0638
544.00,-0.0638
542.00,-0.0638
540.00,-0.0639
538.00,-0.0639
536.00,-0.0639
534.00,-0.0640
532.00,-0.0640
530.00,-0.0641
528.00,-0.0641
526.00,-0.0639
524.00,-0.0638
522.00,-0.0636
520.00,-0.0634
518.00,-0.0635
516.00,-0.0636
514.00,-0.0642
512.00,-0.0645
510.00,-0.0643
508.00,-0.0642
506.00,-0.0639
504.00,-0.0638
502.00,-0.0640
500.00,-0.0639
