Created as New Dataset,Sample 029 By Analyst Date Wednesday, April 02 2025
cm-1,A
4000.00,-0.0639
3998.00,-0.0639
3996.00,-0.0638
3994.00,-0.0638
3992.00,-0.0638
3990.00,-0.0637
3988.00,-0.0637
3986.00,-0.0637
3984.00,-0.0637
3982.00,-0.0637
3980.00,-0.0637
3978.00,-0.0637
3976.00,-0.0638
3974.00,-0.0638
3972.00,-0.0638
3970.00,-0.0638
3968.00,-0.0638
3966.00,-0.0638
3964.00,-0.0638
3962.00,-0.0638
3960.00,-0.0638
3958.00,-0.0638
3956.00,-0.0638
3954.00,-0.0637
3952.00,-0.0637
3950.00,-0.0637
3948.00,-0.0638
3946.00,-0.0638
3944.00,-0.0638
3942.00,-0.0638
3940.00,-0.0639
3938.00,-0.0639
3936.00,-0.0639
3934.00,-0.0639
3932.00,-0.0638
3930.00,-0.0638
3928.00,-0.0638
3926.00,-0.0637
3924.00,-0.0637
3922.00,-0.0637
3920.00,-0.0637
3918.00,-0.0637
3916.00,-0.0637
3914.00,-0.0637
3912.00,-0.0637
3910.00,-0.0637
3908.00,-0.0638
3906.00,-0.0638
3904.00,-0.0637
3902.00,-0.0637
3900.00,-0.0636
3898.00,-0.0636
3896.00,-0.0636
3894.00,-0.0636
3892.00,-0.0635
3890.00,-0.0636
3888.00,-0.0636
3886.00,-0.0635
3884.00,-0.0636
3882.00,-0.0636
3880.00,-0.0636
3878.00,-0.0637
3876.00,-0.0637
3874.00,-0.0638
3872.00,-0.0638
3870.00,-0.0637
3868.00,-0.0637
3866.00,-0.0636
3864.00,-0.0636
3862.00,-0.0636
3860.00,-0.0636
3858.00,-0.0638
3856.00,-0.0639
3854.00,-0.0637
3852.00,-0.0638
3850.00,-0.0637
3848.00,-0.0636
3846.00,-0.0637
3844.00,-0.0638
3842.00,-0.0639
3840.00,-0.0638
3838.00,-0.0638
3836.00,-0.0638
3834.00,-0.0637
3832.00,-0.0636
3830.00,-0.0636
3828.00,-0.0636
3826.00,-0.0636
3824.00,-0.0637
3822.00,-0.0636
3820.00,-0.0637
3818.00,-0.0637
3816.00,-0.0635
3814.00,-0.0636
3812.00,-0.0636
3810.00,-0.0636
3808.00,-0.0636
3806.00,-0.0637
3804.00,-0.0637
3802.00,-0.0635
3800.00,-0.0635
3798.00,-0.0635
3796.00,-0.0634
3794.00,-0.0635
3792.00,-0.0635
3790.00,-0.0635
3788.00,-0.0636
3786.00,-0.0636
3784.00,-0.0636
3782.00,-0.0637
3780.00,-0.0636
3778.00,-0.0636
3776.00,-0.0636
3774.00,-0.0636
3772.00,-0.0636
3770.00,-0.0636
3768.00,-0.0636
3766.00,-0.0635
3764.00,-0.0636
3762.00,-0.0636
3760.00,-0.0636
3758.00,-0.0636
3756.00,-0.0638
3754.00,-0.0638
3752.00,-0.0638
3750.00,-0.0637
3748.00,-0.0638
3746.00,-0.0636
3744.00,-0.0634
3742.00,-0.0636
3740.00,-0.0635
3738.00,-0.0635
3736.00,-0.0635
3734.00,-0.0636
3732.00,-0.0635
3730.00,-0.0635
3728.00,-0.0634
3726.00,-0.0634
3724.00,-0.0634
3722.00,-0.0634
3720.00,-0.0635
3718.00,-0.0634
3716.00,-0.0635
3714.00,-0.0634
3712.00,-0.0632
3710.00,-0.0632
3708.00,-0.0632
3706.00,-0.0632
3704.00,-0.0632
3702.00,-0.0632
3700.00,-0.0632
3698.00,-0.0631
3696.00,-0.0630
3694.00,-0.0631
3692.00,-0.0631
3690.00,-0.0631
3688.00,-0.0631
3686.00,-0.0630
3684.00,-0.0629
3682.00,-0.0630
3680.00,-0.0630
3678.00,-0.0630
3676.00,-0.0628
3674.00,-0.0629
3672.00,-0.0628
3670.00,-0.0627
3668.00,-0.0628
3666.00,-0.0628
3664.00,-0.0628
3662.00,-0.0628
3660.00,-0.0629
3658.00,-0.0630
3656.00,-0.0631
3654.00,-0.0632
3652.00,-0.0632
3650.00,-0.0632
3648.00,-0.0631
3646.00,-0.0631
3644.00,-0.0631
3642.00,-0.0631
3640.00,-0.0632
3638.00,-0.0632
3636.00,-0.0632
3634.00,-0.0633
3632.00,-0.0634
3630.00,-0.0634
3628.00,-0.0634
3626.00,-0.0635
3624.00,-0.0635
3622.00,-0.0636
3620.00,-0.0637
3618.00,-0.0637
3616.00,-0.0636
3614.00,-0.0635
3612.00,-0.0634
3610.00,-0.0634
3608.00,-0.0634
3606.00,-0.0635
3604.00,-0.0635
3602.00,-0.0635
3600.00,-0.0636
3598.00,-0.0636
3596.00,-0.0636
3594.00,-0.0636
3592.00,-0.0637
3590.00,-0.0637
3588.00,-0.0637
3586.00,-0.0637
3584.00,-0.0636
3582.00,-0.0636
3580.00,-0.0636
3578.00,-0.0636
3576.00,-0.0636
3574.00,-0.0636
3572.00,-0.0637
3570.00,-0.0637
3568.00,-0.0637
3566.00,-0.0637
3564.00,-0.0637
3562.00,-0.0637
3560.00,-0.0638
3558.00,-0.0638
3556.00,-0.0638
3554.00,-0.0637
3552.00,-0.0637
3550.00,-0.0637
3548.00,-0.0636
3546.00,-0.0636
3544.00,-0.0636
3542.00,-0.0636
3540.00,-0.0636
3538.00,-0.0636
3536.00,-0.0636
3534.00,-0.0636
3532.00,-0.0637
3530.00,-0.0637
3528.00,-0.0637
3526.00,-0.0637
3524.00,-0.0636
3522.00,-0.0636
3520.00,-0.0636
3518.00,-0.0636
3516.00,-0.0636
3514.00,-0.0636
3512.00,-0.0636
3510.00,-0.0636
3508.00,-0.0637
3506.00,-0.0637
3504.00,-0.0637
3502.00,-0.0637
3500.00,-0.0638
3498.00,-0.0638
3496.00,-0.0638
3494.00,-0.0638
3492.00,-0.0638
3490.00,-0.0637
3488.00,-0.0637
3486.00,-0.0637
3484.00,-0.0637
3482.00,-0.0637
3480.00,-0.0637
3478.00,-0.0638
3476.00,-0.0638
3474.00,-0.0638
3472.00,-0.0638
3470.00,-0.0639
3468.00,-0.0639
3466.00,-0.0639
3464.00,-0.0639
3462.00,-0.0639
3460.00,-0.0638
3458.00,-0.0638
3456.00,-0.0638
3454.00,-0.0637
3452.00,-0.0637
3450.00,-0.0637
3448.00,-0.0637
3446.00,-0.0637
3444.00,-0.0637
3442.00,-0.0637
3440.00,-0.0638
3438.00,-0.0638
3436.00,-0.0638
3434.00,-0.0638
3432.00,-0.0638
3430.00,-0.0638
3428.00,-0.0638
3426.00,-0.0637
3424.00,-0.0637
3422.00,-0.0637
3420.00,-0.0637
3418.00,-0.0637
3416.00,-0.0637
3414.00,-0.0637
3412.00,-0.0637
3410.00,-0.0637
3408.00,-0.0638
3406.00,-0.0638
3404.00,-0.0638
3402.00,-0.0638
3400.00,-0.0638
3398.00,-0.0637
3396.00,-0.0637
3394.00,-0.0637
3392.00,-0.0637
3390.00,-0.0637
3388.00,-0.0636
3386.00,-0.0636
3384.00,-0.0637
3382.00,-0.0637
3380.00,-0.0637
3378.00,-0.0637
3376.00,-0.0637
3374.00,-0.0638
3372.00,-0.0638
3370.00,-0.0637
3368.00,-0.0637
3366.00,-0.0637
3364.00,-0.0636
3362.00,-0.0636
3360.00,-0.0636
3358.00,-0.0635
3356.00,-0.0635
3354.00,-0.0635
3352.00,-0.0635
3350.00,-0.0635
3348.00,-0.0635
3346.00,-0.0636
3344.00,-0.0636
3342.00,-0.0636
3340.00,-0.0636
3338.00,-0.0636
3336.00,-0.0636
3334.00,-0.0636
3332.00,-0.0636
3330.00,-0.0636
3328.00,-0.0636
3326.00,-0.0636
3324.00,-0.0636
3322.00,-0.0636
3320.00,-0.0637
3318.00,-0.0637
3316.00,-0.0637
3314.00,-0.0638
3312.00,-0.0638
3310.00,-0.0638
3308.00,-0.0638
3306.00,-0.0638
3304.00,-0.0638
3302.00,-0.0638
3300.00,-0.0638
3298.00,-0.0638
3296.00,-0.0637
3294.00,-0.0637
3292.00,-0.0637
3290.00,-0.0637
3288.00,-0.0637
3286.00,-0.0637
3284.00,-0.0637
3282.00,-0.0638
3280.00,-0.0637
3278.00,-0.0637
3276.00,-0.0637
3274.00,-0.0637
3272.00,-0.0637
3270.00,-0.0636
3268.00,-0.0636
3266.00,-0.0635
3264.00,-0.0635
3262.00,-0.0635
3260.00,-0.0635
3258.00,-0.0635
3256.00,-0.0635
3254.00,-0.0635
3252.00,-0.0636
3250.00,-0.0636
3248.00,-0.0636
3246.00,-0.0636
3244.00,-0.0636
3242.00,-0.0636
3240.00,-0.0636
3238.00,-0.0636
3236.00,-0.0636
3234.00,-0.0636
3232.00,-0.0636
3230.00,-0.0636
3228.00,-0.0636
3226.00,-0.0636
3224.00,-0.0636
3222.00,-0.0637
3220.00,-0.0637
3218.00,-0.0637
3216.00,-0.0637
3214.00,-0.0637
3212.00,-0.0637
3210.00,-0.0637
3208.00,-0.0637
3206.00,-0.0637
3204.00,-0.0637
3202.00,-0.0637
3200.00,-0.0637
3198.00,-0.0637
3196.00,-0.0637
3194.00,-0.0637
3192.00,-0.0637
3190.00,-0.0637
3188.00,-0.0638
3186.00,-0.0638
3184.00,-0.0638
3182.00,-0.0637
3180.00,-0.0637
3178.00,-0.0637
3176.00,-0.0636
3174.00,-0.0636
3172.00,-0.0636
3170.00,-0.0636
3168.00,-0.0636
3166.00,-0.0636
3164.00,-0.0636
3162.00,-0.0636
3160.00,-0.0636
3158.00,-0.0636
3156.00,-0.0637
3154.00,-0.0637
3152.00,-0.0637
3150.00,-0.0637
3148.00,-0.0637
3146.00,-0.0637
3144.00,-0.0637
3142.00,-0.0636
3140.00,-0.0636
3138.00,-0.0636
3136.00,-0.0637
3134.00,-0.0637
3132.00,-0.0637
3130.00,-0.0637
3128.00,-0.0637
3126.00,-0.0638
3124.00,-0.0638
3122.00,-0.0638
3120.00,-0.0638
3118.00,-0.0638
3116.00,-0.0638
3114.00,-0.0638
3112.00,-0.0638
3110.00,-0.0638
3108.00,-0.0638
3106.00,-0.0638
3104.00,-0.0638
3102.00,-0.0638
3100.00,-0.0638
3098.00,-0.0638
3096.00,-0.0638
3094.00,-0.0638
3092.00,-0.0638
3090.00,-0.0638
3088.00,-0.0638
3086.00,-0.0638
3084.00,-0.0637
3082.00,-0.0637
3080.00,-0.0637
3078.00,-0.0637
3076.00,-0.0636
3074.00,-0.0636
3072.00,-0.0636
3070.00,-0.0637
3068.00,-0.0637
3066.00,-0.0637
3064.00,-0.0637
3062.00,-0.0637
3060.00,-0.0637
3058.00,-0.0638
3056.00,-0.0638
3054.00,-0.0637
3052.00,-0.0637
3050.00,-0.0637
3048.00,-0.0636
3046.00,-0.0636
3044.00,-0.0636
3042.00,-0.0635
3040.00,-0.0635
3038.00,-0.0635
3036.00,-0.0635
3034.00,-0.0634
3032.00,-0.0634
3030.00,-0.0633
3028.00,-0.0632
3026.00,-0.0631
3024.00,-0.0630
3022.00,-0.0629
3020.00,-0.0628
3018.00,-0.0626
3016.00,-0.0625
3014.00,-0.0623
3012.00,-0.0622
3010.00,-0.0620
3008.00,-0.0619
3006.00,-0.0617
3004.00,-0.0615
3002.00,-0.0614
3000.00,-0.0612
2998.00,-0.0611
2996.00,-0.0610
2994.00,-0.0609
2992.00,-0.0606
2990.00,-0.0602
2988.00,-0.0601
2986.00,-0.0601
2984.00,-0.0602
2982.00,-0.0602
2980.00,-0.0602
2978.00,-0.0602
2976.00,-0.0602
2974.00,-0.0602
2972.00,-0.0602
2970.00,-0.0603
2968.00,-0.0604
2966.00,-0.0605
2964.00,-0.0606
2962.00,-0.0607
2960.00,-0.0608
2958.00,-0.0609
2956.00,-0.0609
2954.00,-0.0610
2952.00,-0.0610
2950.00,-0.0611
2948.00,-0.0612
2946.00,-0.0612
2944.00,-0.0612
2942.00,-0.0613
2940.00,-0.0614
2938.00,-0.0614
2936.00,-0.0614
2934.00,-0.0614
2932.00,-0.0614
2930.00,-0.0614
2928.00,-0.0613
2926.00,-0.0613
2924.00,-0.0612
2922.00,-0.0612
2920.00,-0.0611
2918.00,-0.0611
2916.00,-0.0611
2914.00,-0.0611
2912.00,-0.0610
2910.00,-0.0610
2908.00,-0.0610
2906.00,-0.0609
2904.00,-0.0608
2902.00,-0.0607
2900.00,-0.0607
2898.00,-0.0609
2896.00,-0.0610
2894.00,-0.0610
2892.00,-0.0610
2890.00,-0.0611
2888.00,-0.0611
2886.00,-0.0611
2884.00,-0.0612
2882.00,-0.0613
2880.00,-0.0614
2878.00,-0.0616
2876.00,-0.0617
2874.00,-0.0618
2872.00,-0.0618
2870.00,-0.0619
2868.00,-0.0619
2866.00,-0.0620
2864.00,-0.0621
2862.00,-0.0622
2860.00,-0.0622
2858.00,-0.0623
2856.00,-0.0624
2854.00,-0.0625
2852.00,-0.0626
2850.00,-0.0627
2848.00,-0.0628
2846.00,-0.0629
2844.00,-0.0629
2842.00,-0.0630
2840.00,-0.0631
2838.00,-0.0631
2836.00,-0.0631
2834.00,-0.0632
2832.00,-0.0632
2830.00,-0.0632
2828.00,-0.0632
2826.00,-0.0632
2824.00,-0.0632
2822.00,-0.0632
2820.00,-0.0632
2818.00,-0.0632
2816.00,-0.0632
2814.00,-0.0632
2812.00,-0.0633
2810.00,-0.0633
2808.00,-0.0633
2806.00,-0.0633
2804.00,-0.0633
2802.00,-0.0632
2800.00,-0.0632
2798.00,-0.0632
2796.00,-0.0632
2794.00,-0.0632
2792.00,-0.0632
2790.00,-0.0632
2788.00,-0.0633
2786.00,-0.0633
2784.00,-0.0633
2782.00,-0.0633
2780.00,-0.0634
2778.00,-0.0634
2776.00,-0.0634
2774.00,-0.0634
2772.00,-0.0634
2770.00,-0.0634
2768.00,-0.0634
2766.00,-0.0633
2764.00,-0.0633
2762.00,-0.0633
2760.00,-0.0633
2758.00,-0.0634
2756.00,-0.0634
2754.00,-0.0634
2752.00,-0.0634
2750.00,-0.0635
2748.00,-0.0635
2746.00,-0.0635
2744.00,-0.0635
2742.00,-0.0635
2740.00,-0.0635
2738.00,-0.0634
2736.00,-0.0634
2734.00,-0.0634
2732.00,-0.0634
2730.00,-0.0634
2728.00,-0.0633
2726.00,-0.0633
2724.00,-0.0633
2722.00,-0.0633
2720.00,-0.0633
2718.00,-0.0633
2716.00,-0.0633
2714.00,-0.0633
2712.00,-0.0633
2710.00,-0.0633
2708.00,-0.0633
2706.00,-0.0633
2704.00,-0.0633
2702.00,-0.0633
2700.00,-0.0633
2698.00,-0.0633
2696.00,-0.0633
2694.00,-0.0633
2692.00,-0.0633
2690.00,-0.0633
2688.00,-0.0634
2686.00,-0.0634
2684.00,-0.0634
2682.00,-0.0634
2680.00,-0.0634
2678.00,-0.0634
2676.00,-0.0634
2674.00,-0.0634
2672.00,-0.0634
2670.00,-0.0634
2668.00,-0.0633
2666.00,-0.0633
2664.00,-0.0633
2662.00,-0.0634
2660.00,-0.0634
2658.00,-0.0634
2656.00,-0.0634
2654.00,-0.0634
2652.00,-0.0634
2650.00,-0.0634
2648.00,-0.0634
2646.00,-0.0634
2644.00,-0.0634
2642.00,-0.0633
2640.00,-0.0633
2638.00,-0.0633
2636.00,-0.0632
2634.00,-0.0632
2632.00,-0.0632
2630.00,-0.0632
2628.00,-0.0632
2626.00,-0.0632
2624.00,-0.0633
2622.00,-0.0633
2620.00,-0.0633
2618.00,-0.0633
2616.00,-0.0633
2614.00,-0.0633
2612.00,-0.0632
2610.00,-0.0632
2608.00,-0.0632
2606.00,-0.0632
2604.00,-0.0632
2602.00,-0.0632
2600.00,-0.0632
2598.00,-0.0633
2596.00,-0.0633
2594.00,-0.0633
2592.00,-0.0633
2590.00,-0.0633
2588.00,-0.0633
2586.00,-0.0633
2584.00,-0.0633
2582.00,-0.0633
2580.00,-0.0633
2578.00,-0.0633
2576.00,-0.0632
2574.00,-0.0632
2572.00,-0.0632
2570.00,-0.0633
2568.00,-0.0633
2566.00,-0.0633
2564.00,-0.0633
2562.00,-0.0633
2560.00,-0.0633
2558.00,-0.0633
2556.00,-0.0633
2554.00,-0.0633
2552.00,-0.0633
2550.00,-0.0632
2548.00,-0.0632
2546.00,-0.0632
2544.00,-0.0631
2542.00,-0.0631
2540.00,-0.0631
2538.00,-0.0631
2536.00,-0.0631
2534.00,-0.0631
2532.00,-0.0631
2530.00,-0.0631
2528.00,-0.0632
2526.00,-0.0632
2524.00,-0.0631
2522.00,-0.0631
2520.00,-0.0631
2518.00,-0.0631
2516.00,-0.0631
2514.00,-0.0631
2512.00,-0.0630
2510.00,-0.0630
2508.00,-0.0630
2506.00,-0.0630
2504.00,-0.0631
2502.00,-0.0631
2500.00,-0.0631
2498.00,-0.0631
2496.00,-0.0631
2494.00,-0.0631
2492.00,-0.0631
2490.00,-0.0631
2488.00,-0.0631
2486.00,-0.0631
2484.00,-0.0630
2482.00,-0.0630
2480.00,-0.0630
2478.00,-0.0630
2476.00,-0.0630
2474.00,-0.0630
2472.00,-0.0630
2470.00,-0.0630
2468.00,-0.0631
2466.00,-0.0631
2464.00,-0.0631
2462.00,-0.0630
2460.00,-0.0630
2458.00,-0.0630
2456.00,-0.0629
2454.00,-0.0629
2452.00,-0.0629
2450.00,-0.0629
2448.00,-0.0628
2446.00,-0.0628
2444.00,-0.0629
2442.00,-0.0629
2440.00,-0.0629
2438.00,-0.0629
2436.00,-0.0630
2434.00,-0.0630
2432.00,-0.0630
2430.00,-0.0630
2428.00,-0.0630
2426.00,-0.0630
2424.00,-0.0630
2422.00,-0.0630
2420.00,-0.0629
2418.00,-0.0629
2416.00,-0.0629
2414.00,-0.0630
2412.00,-0.0630
2410.00,-0.0630
2408.00,-0.0630
2406.00,-0.0630
2404.00,-0.0630
2402.00,-0.0631
2400.00,-0.0631
2398.00,-0.0630
2396.00,-0.0630
2394.00,-0.0630
2392.00,-0.0630
2390.00,-0.0629
2388.00,-0.0629
2386.00,-0.0627
2384.00,-0.0626
2382.00,-0.0626
2380.00,-0.0628
2378.00,-0.0633
2376.00,-0.0636
2374.00,-0.0637
2372.00,-0.0634
2370.00,-0.0632
2368.00,-0.0632
2366.00,-0.0632
2364.00,-0.0632
2362.00,-0.0632
2360.00,-0.0632
2358.00,-0.0632
2356.00,-0.0632
2354.00,-0.0632
2352.00,-0.0636
2350.00,-0.0639
2348.00,-0.0633
2346.00,-0.0629
2344.00,-0.0632
2342.00,-0.0630
2340.00,-0.0630
2338.00,-0.0631
2336.00,-0.0631
2334.00,-0.0630
2332.00,-0.0629
2330.00,-0.0629
2328.00,-0.0627
2326.00,-0.0625
2324.00,-0.0624
2322.00,-0.0625
2320.00,-0.0627
2318.00,-0.0626
2316.00,-0.0625
2314.00,-0.0626
2312.00,-0.0626
2310.00,-0.0626
2308.00,-0.0626
2306.00,-0.0626
2304.00,-0.0625
2302.00,-0.0625
2300.00,-0.0625
2298.00,-0.0626
2296.00,-0.0626
2294.00,-0.0626
2292.00,-0.0626
2290.00,-0.0627
2288.00,-0.0627
2286.00,-0.0627
2284.00,-0.0627
2282.00,-0.0627
2280.00,-0.0627
2278.00,-0.0628
2276.00,-0.0628
2274.00,-0.0628
2272.00,-0.0627
2270.00,-0.0627
2268.00,-0.0627
2266.00,-0.0627
2264.00,-0.0626
2262.00,-0.0626
2260.00,-0.0626
2258.00,-0.0626
2256.00,-0.0626
2254.00,-0.0626
2252.00,-0.0627
2250.00,-0.0627
2248.00,-0.0627
2246.00,-0.0627
2244.00,-0.0627
2242.00,-0.0627
2240.00,-0.0627
2238.00,-0.0627
2236.00,-0.0627
2234.00,-0.0627
2232.00,-0.0626
2230.00,-0.0626
2228.00,-0.0626
2226.00,-0.0626
2224.00,-0.0626
2222.00,-0.0626
2220.00,-0.0627
2218.00,-0.0627
2216.00,-0.0627
2214.00,-0.0627
2212.00,-0.0627
2210.00,-0.0627
2208.00,-0.0627
2206.00,-0.0627
2204.00,-0.0626
2202.00,-0.0626
2200.00,-0.0626
2198.00,-0.0626
2196.00,-0.0625
2194.00,-0.0625
2192.00,-0.0625
2190.00,-0.0625
2188.00,-0.0625
2186.00,-0.0625
2184.00,-0.0625
2182.00,-0.0625
2180.00,-0.0625
2178.00,-0.0625
2176.00,-0.0625
2174.00,-0.0625
2172.00,-0.0624
2170.00,-0.0624
2168.00,-0.0624
2166.00,-0.0624
2164.00,-0.0624
2162.00,-0.0625
2160.00,-0.0625
2158.00,-0.0625
2156.00,-0.0625
2154.00,-0.0625
2152.00,-0.0626
2150.00,-0.0626
2148.00,-0.0626
2146.00,-0.0626
2144.00,-0.0625
2142.00,-0.0625
2140.00,-0.0625
2138.00,-0.0625
2136.00,-0.0624
2134.00,-0.0624
2132.00,-0.0624
2130.00,-0.0624
2128.00,-0.0624
2126.00,-0.0625
2124.00,-0.0625
2122.00,-0.0625
2120.00,-0.0625
2118.00,-0.0625
2116.00,-0.0625
2114.00,-0.0625
2112.00,-0.0625
2110.00,-0.0625
2108.00,-0.0624
2106.00,-0.0624
2104.00,-0.0624
2102.00,-0.0624
2100.00,-0.0623
2098.00,-0.0623
2096.00,-0.0623
2094.00,-0.0624
2092.00,-0.0624
2090.00,-0.0624
2088.00,-0.0624
2086.00,-0.0624
2084.00,-0.0624
2082.00,-0.0624
2080.00,-0.0624
2078.00,-0.0624
2076.00,-0.0624
2074.00,-0.0624
2072.00,-0.0624
2070.00,-0.0624
2068.00,-0.0624
2066.00,-0.0624
2064.00,-0.0624
2062.00,-0.0624
2060.00,-0.0624
2058.00,-0.0624
2056.00,-0.0624
2054.00,-0.0624
2052.00,-0.0624
2050.00,-0.0624
2048.00,-0.0624
2046.00,-0.0624
2044.00,-0.0624
2042.00,-0.0624
2040.00,-0.0624
2038.00,-0.0624
2036.00,-0.0624
2034.00,-0.0624
2032.00,-0.0624
2030.00,-0.0625
2028.00,-0.0625
2026.00,-0.0625
2024.00,-0.0625
2022.00,-0.0624
2020.00,-0.0624
2018.00,-0.0624
2016.00,-0.0623
2014.00,-0.0623
2012.00,-0.0623
2010.00,-0.0622
2008.00,-0.0622
2006.00,-0.0622
2004.00,-0.0623
2002.00,-0.0623
2000.00,-0.0623
1998.00,-0.0624
1996.00,-0.0624
1994.00,-0.0624
1992.00,-0.0624
1990.00,-0.0624
1988.00,-0.0624
1986.00,-0.0624
1984.00,-0.0625
1982.00,-0.0624
1980.00,-0.0624
1978.00,-0.0624
1976.00,-0.0624
1974.00,-0.0625
1972.00,-0.0625
1970.00,-0.0625
1968.00,-0.0625
1966.00,-0.0625
1964.00,-0.0625
1962.00,-0.0625
1960.00,-0.0625
1958.00,-0.0625
1956.00,-0.0625
1954.00,-0.0625
1952.00,-0.0625
1950.00,-0.0625
1948.00,-0.0625
1946.00,-0.0625
1944.00,-0.0625
1942.00,-0.0625
1940.00,-0.0625
1938.00,-0.0625
1936.00,-0.0625
1934.00,-0.0624
1932.00,-0.0624
1930.00,-0.0624
1928.00,-0.0624
1926.00,-0.0623
1924.00,-0.0623
1922.00,-0.0623
1920.00,-0.0623
1918.00,-0.0622
1916.00,-0.0623
1914.00,-0.0622
1912.00,-0.0622
1910.00,-0.0623
1908.00,-0.0623
1906.00,-0.0623
1904.00,-0.0623
1902.00,-0.0623
1900.00,-0.0623
1898.00,-0.0624
1896.00,-0.0624
1894.00,-0.0624
1892.00,-0.0624
1890.00,-0.0623
1888.00,-0.0624
1886.00,-0.0624
1884.00,-0.0624
1882.00,-0.0624
1880.00,-0.0624
1878.00,-0.0624
1876.00,-0.0624
1874.00,-0.0625
1872.00,-0.0625
1870.00,-0.0625
1868.00,-0.0625
1866.00,-0.0625
1864.00,-0.0625
1862.00,-0.0625
1860.00,-0.0625
1858.00,-0.0625
1856.00,-0.0625
1854.00,-0.0625
1852.00,-0.0625
1850.00,-0.0625
1848.00,-0.0625
1846.00,-0.0625
1844.00,-0.0625
1842.00,-0.0626
1840.00,-0.0625
1838.00,-0.0625
1836.00,-0.0625
1834.00,-0.0625
1832.00,-0.0625
1830.00,-0.0625
1828.00,-0.0625
1826.00,-0.0625
1824.00,-0.0625
1822.00,-0.0625
1820.00,-0.0625
1818.00,-0.0625
1816.00,-0.0626
1814.00,-0.0626
1812.00,-0.0626
1810.00,-0.0627
1808.00,-0.0627
1806.00,-0.0627
1804.00,-0.0627
1802.00,-0.0627
1800.00,-0.0627
1798.00,-0.0627
1796.00,-0.0627
1794.00,-0.0626
1792.00,-0.0621
1790.00,-0.0621
1788.00,-0.0627
1786.00,-0.0630
1784.00,-0.0629
1782.00,-0.0628
1780.00,-0.0628
1778.00,-0.0628
1776.00,-0.0629
1774.00,-0.0628
1772.00,-0.0628
1770.00,-0.0628
1768.00,-0.0628
1766.00,-0.0628
1764.00,-0.0628
1762.00,-0.0627
1760.00,-0.0627
1758.00,-0.0627
1756.00,-0.0627
1754.00,-0.0627
1752.00,-0.0627
1750.00,-0.0627
1748.00,-0.0627
1746.00,-0.0627
1744.00,-0.0627
1742.00,-0.0627
1740.00,-0.0627
1738.00,-0.0627
1736.00,-0.0627
1734.00,-0.0627
1732.00,-0.0627
1730.00,-0.0627
1728.00,-0.0627
1726.00,-0.0627
1724.00,-0.0627
1722.00,-0.0627
1720.00,-0.0628
1718.00,-0.0628
1716.00,-0.0627
1714.00,-0.0628
1712.00,-0.0628
1710.00,-0.0628
1708.00,-0.0628
1706.00,-0.0628
1704.00,-0.0628
1702.00,-0.0628
1700.00,-0.0627
1698.00,-0.0627
1696.00,-0.0627
1694.00,-0.0628
1692.00,-0.0628
1690.00,-0.0628
1688.00,-0.0628
1686.00,-0.0628
1684.00,-0.0628
1682.00,-0.0628
1680.00,-0.0628
1678.00,-0.0628
1676.00,-0.0628
1674.00,-0.0627
1672.00,-0.0627
1670.00,-0.0627
1668.00,-0.0627
1666.00,-0.0626
1664.00,-0.0626
1662.00,-0.0627
1660.00,-0.0627
1658.00,-0.0627
1656.00,-0.0627
1654.00,-0.0627
1652.00,-0.0628
1650.00,-0.0627
1648.00,-0.0627
1646.00,-0.0627
1644.00,-0.0628
1642.00,-0.0628
1640.00,-0.0628
1638.00,-0.0628
1636.00,-0.0628
1634.00,-0.0628
1632.00,-0.0627
1630.00,-0.0627
1628.00,-0.0627
1626.00,-0.0628
1624.00,-0.0628
1622.00,-0.0628
1620.00,-0.0628
1618.00,-0.0628
1616.00,-0.0628
1614.00,-0.0628
1612.00,-0.0627
1610.00,-0.0627
1608.00,-0.0627
1606.00,-0.0627
1604.00,-0.0627
1602.00,-0.0627
1600.00,-0.0627
1598.00,-0.0627
1596.00,-0.0627
1594.00,-0.0627
1592.00,-0.0627
1590.00,-0.0627
1588.00,-0.0628
1586.00,-0.0628
1584.00,-0.0628
1582.00,-0.0628
1580.00,-0.0628
1578.00,-0.0628
1576.00,-0.0627
1574.00,-0.0627
1572.00,-0.0627
1570.00,-0.0627
1568.00,-0.0628
1566.00,-0.0627
1564.00,-0.0627
1562.00,-0.0628
1560.00,-0.0627
1558.00,-0.0627
1556.00,-0.0627
1554.00,-0.0627
1552.00,-0.0628
1550.00,-0.0628
1548.00,-0.0628
1546.00,-0.0628
1544.00,-0.0628
1542.00,-0.0629
1540.00,-0.0628
1538.00,-0.0629
1536.00,-0.0628
1534.00,-0.0628
1532.00,-0.0628
1530.00,-0.0628
1528.00,-0.0628
1526.00,-0.0629
1524.00,-0.0628
1522.00,-0.0628
1520.00,-0.0628
1518.00,-0.0627
1516.00,-0.0627
1514.00,-0.0627
1512.00,-0.0626
1510.00,-0.0626
1508.00,-0.0626
1506.00,-0.0626
1504.00,-0.0626
1502.00,-0.0625
1500.00,-0.0624
1498.00,-0.0623
1496.00,-0.0622
1494.00,-0.0621
1492.00,-0.0622
1490.00,-0.0623
1488.00,-0.0624
1486.00,-0.0625
1484.00,-0.0625
1482.00,-0.0625
1480.00,-0.0625
1478.00,-0.0625
1476.00,-0.0625
1474.00,-0.0625
1472.00,-0.0625
1470.00,-0.0625
1468.00,-0.0626
1466.00,-0.0626
1464.00,-0.0626
1462.00,-0.0626
1460.00,-0.0626
1458.00,-0.0625
1456.00,-0.0624
1454.00,-0.0622
1452.00,-0.0622
1450.00,-0.0622
1448.00,-0.0623
1446.00,-0.0624
1444.00,-0.0624
1442.00,-0.0624
1440.00,-0.0624
1438.00,-0.0624
1436.00,-0.0624
1434.00,-0.0624
1432.00,-0.0624
1430.00,-0.0624
1428.00,-0.0624
1426.00,-0.0623
1424.00,-0.0623
1422.00,-0.0622
1420.00,-0.0621
1418.00,-0.0620
1416.00,-0.0618
1414.00,-0.0617
1412.00,-0.0616
1410.00,-0.0614
1408.00,-0.0613
1406.00,-0.0613
1404.00,-0.0613
1402.00,-0.0614
1400.00,-0.0616
1398.00,-0.0616
1396.00,-0.0614
1394.00,-0.0612
1392.00,-0.0615
1390.00,-0.0617
1388.00,-0.0618
1386.00,-0.0617
1384.00,-0.0616
1382.00,-0.0616
1380.00,-0.0617
1378.00,-0.0617
1376.00,-0.0618
1374.00,-0.0619
1372.00,-0.0621
1370.00,-0.0622
1368.00,-0.0623
1366.00,-0.0623
1364.00,-0.0624
1362.00,-0.0624
1360.00,-0.0625
1358.00,-0.0625
1356.00,-0.0625
1354.00,-0.0625
1352.00,-0.0626
1350.00,-0.0626
1348.00,-0.0626
1346.00,-0.0626
1344.00,-0.0626
1342.00,-0.0626
1340.00,-0.0627
1338.00,-0.0627
1336.00,-0.0627
1334.00,-0.0627
1332.00,-0.0627
1330.00,-0.0627
1328.00,-0.0628
1326.00,-0.0628
1324.00,-0.0627
1322.00,-0.0627
1320.00,-0.0627
1318.00,-0.0627
1316.00,-0.0628
1314.00,-0.0628
1312.00,-0.0628
1310.00,-0.0628
1308.00,-0.0628
1306.00,-0.0628
1304.00,-0.0628
1302.00,-0.0628
1300.00,-0.0628
1298.00,-0.0628
1296.00,-0.0628
1294.00,-0.0627
1292.00,-0.0627
1290.00,-0.0627
1288.00,-0.0626
1286.00,-0.0626
1284.00,-0.0626
1282.00,-0.0626
1280.00,-0.0625
1278.00,-0.0625
1276.00,-0.0625
1274.00,-0.0624
1272.00,-0.0624
1270.00,-0.0623
1268.00,-0.0622
1266.00,-0.0620
1264.00,-0.0619
1262.00,-0.0617
1260.00,-0.0617
1258.00,-0.0616
1256.00,-0.0617
1254.00,-0.0617
1252.00,-0.0617
1250.00,-0.0617
1248.00,-0.0618
1246.00,-0.0619
1244.00,-0.0619
1242.00,-0.0618
1240.00,-0.0619
1238.00,-0.0621
1236.00,-0.0620
1234.00,-0.0619
1232.00,-0.0619
1230.00,-0.0618
1228.00,-0.0618
1226.00,-0.0619
1224.00,-0.0619
1222.00,-0.0620
1220.00,-0.0621
1218.00,-0.0621
1216.00,-0.0622
1214.00,-0.0623
1212.00,-0.0623
1210.00,-0.0624
1208.00,-0.0624
1206.00,-0.0624
1204.00,-0.0625
1202.00,-0.0625
1200.00,-0.0625
1198.00,-0.0625
1196.00,-0.0625
1194.00,-0.0626
1192.00,-0.0626
1190.00,-0.0626
1188.00,-0.0626
1186.00,-0.0627
1184.00,-0.0627
1182.00,-0.0627
1180.00,-0.0627
1178.00,-0.0627
1176.00,-0.0627
1174.00,-0.0627
1172.00,-0.0627
1170.00,-0.0627
1168.00,-0.0627
1166.00,-0.0627
1164.00,-0.0627
1162.00,-0.0627
1160.00,-0.0627
1158.00,-0.0627
1156.00,-0.0627
1154.00,-0.0627
1152.00,-0.0627
1150.00,-0.0627
1148.00,-0.0627
1146.00,-0.0627
1144.00,-0.0626
1142.00,-0.0626
1140.00,-0.0626
1138.00,-0.0626
1136.00,-0.0626
1134.00,-0.0625
1132.00,-0.0625
1130.00,-0.0625
1128.00,-0.0625
1126.00,-0.0624
1124.00,-0.0624
1122.00,-0.0624
1120.00,-0.0623
1118.00,-0.0622
1116.00,-0.0621
1114.00,-0.0620
1112.00,-0.0619
1110.00,-0.0617
1108.00,-0.0616
1106.00,-0.0614
1104.00,-0.0613
1102.00,-0.0612
1100.00,-0.0612
1098.00,-0.0611
1096.00,-0.0611
1094.00,-0.0610
1092.00,-0.0608
1090.00,-0.0604
1088.00,-0.0601
1086.00,-0.0599
1084.00,-0.0596
1082.00,-0.0592
1080.00,-0.0589
1078.00,-0.0587
1076.00,-0.0585
1074.00,-0.0585
1072.00,-0.0587
1070.00,-0.0587
1068.00,-0.0584
1066.00,-0.0581
1064.00,-0.0584
1062.00,-0.0588
1060.00,-0.0587
1058.00,-0.0583
1056.00,-0.0583
1054.00,-0.0583
1052.00,-0.0582
1050.00,-0.0582
1048.00,-0.0583
1046.00,-0.0586
1044.00,-0.0589
1042.00,-0.0591
1040.00,-0.0593
1038.00,-0.0595
1036.00,-0.0598
1034.00,-0.0601
1032.00,-0.0605
1030.00,-0.0606
1028.00,-0.0605
1026.00,-0.0608
1024.00,-0.0611
1022.00,-0.0613
1020.00,-0.0613
1018.00,-0.0614
1016.00,-0.0615
1014.00,-0.0616
1012.00,-0.0618
1010.00,-0.0619
1008.00,-0.0621
1006.00,-0.0622
1004.00,-0.0624
1002.00,-0.0626
1000.00,-0.0627
998.00,-0.0628
996.00,-0.0629
994.00,-0.0630
992.00,-0.0631
990.00,-0.0631
988.00,-0.0632
986.00,-0.0633
984.00,-0.0633
982.00,-0.0633
980.00,-0.0634
978.00,-0.0634
976.00,-0.0634
974.00,-0.0635
972.00,-0.0635
970.00,-0.0635
968.00,-0.0636
966.00,-0.0636
964.00,-0.0637
962.00,-0.0637
960.00,-0.0637
958.00,-0.0637
956.00,-0.0637
954.00,-0.0637
952.00,-0.0637
950.00,-0.0637
948.00,-0.0637
946.00,-0.0637
944.00,-0.0637
942.00,-0.0637
940.00,-0.0638
938.00,-0.0638
936.00,-0.0638
934.00,-0.0638
932.00,-0.0639
930.00,-0.0639
928.00,-0.0639
926.00,-0.0639
924.00,-0.0638
922.00,-0.0638
920.00,-0.0638
918.00,-0.0638
916.00,-0.0637
914.00,-0.0637
912.00,-0.0636
910.00,-0.0635
908.00,-0.0635
906.00,-0.0635
904.00,-0.0634
902.00,-0.0634
900.00,-0.0633
898.00,-0.0633
896.00,-0.0632
894.00,-0.0632
892.00,-0.0631
890.00,-0.0632
888.00,-0.0633
886.00,-0.0633
884.00,-0.0632
882.00,-0.0631
880.00,-0.0630
878.00,-0.0631
876.00,-0.0632
874.00,-0.0631
872.00,-0.0631
870.00,-0.0632
868.00,-0.0633
866.00,-0.0633
864.00,-0.0634
862.00,-0.0635
860.00,-0.0635
858.00,-0.0636
856.00,-0.0636
854.00,-0.0636
852.00,-0.0636
850.00,-0.0637
848.00,-0.0637
846.00,-0.0637
844.00,-0.0637
842.00,-0.0637
840.00,-0.0637
838.00,-0.0637
836.00,-0.0637
834.00,-0.0637
832.00,-0.0636
830.00,-0.0635
828.00,-0.0634
826.00,-0.0633
824.00,-0.0632
822.00,-0.0633
820.00,-0.0633
818.00,-0.0634
816.00,-0.0634
814.00,-0.0634
812.00,-0.0635
810.00,-0.0635
808.00,-0.0635
806.00,-0.0635
804.00,-0.0635
802.00,-0.0635
800.00,-0.0635
798.00,-0.0635
796.00,-0.0636
794.00,-0.0636
792.00,-0.0636
790.00,-0.0637
788.00,-0.0637
786.00,-0.0637
784.00,-0.0638
782.00,-0.0638
780.00,-0.0638
778.00,-0.0638
776.00,-0.0639
774.00,-0.0639
772.00,-0.0639
770.00,-0.0639
768.00,-0.0639
766.00,-0.0638
764.00,-0.0638
762.00,-0.0638
760.00,-0.0638
758.00,-0.0638
756.00,-0.0638
754.00,-0.0638
752.00,-0.0638
750.00,-0.0638
748.00,-0.0638
746.00,-0.0638
744.00,-0.0638
742.00,-0.0638
740.00,-0.0638
738.00,-0.0638
736.00,-0.0638
734.00,-0.0638
732.00,-0.0638
730.00,-0.0638
728.00,-0.0637
726.00,-0.0637
724.00,-0.0638
722.00,-0.0638
720.00,-0.0638
718.00,-0.0638
716.00,-0.0637
714.00,-0.0637
712.00,-0.0637
710.00,-0.0637
708.00,-0.0637
706.00,-0.0637
704.00,-0.0637
702.00,-0.0637
700.00,-0.0637
698.00,-0.0638
696.00,-0.0638
694.00,-0.0638
692.00,-0.0638
690.00,-0.0638
688.00,-0.0638
686.00,-0.0639
684.00,-0.0640
682.00,-0.0641
680.00,-0.0641
678.00,-0.0641
676.00,-0.0641
674.00,-0.0640
672.00,-0.0643
670.00,-0.0661
668.00,-0.0688
666.00,-0.0663
664.00,-0.0643
662.00,-0.0638
660.00,-0.0639
658.00,-0.0640
656.00,-0.0640
654.00,-0.0640
652.00,-0.0639
650.00,-0.0639
648.00,-0.0639
646.00,-0.0638
644.00,-0.0638
642.00,-0.0637
640.00,-0.0636
638.00,-0.0635
636.00,-0.0635
634.00,-0.0635
632.00,-0.0635
630.00,-0.0635
628.00,-0.0635
626.00,-0.0636
624.00,-0.0634
622.00,-0.0635
620.00,-0.0634
618.00,-0.0634
616.00,-0.0634
614.00,-0.0635
612.00,-0.0635
610.00,-0.0635
608.00,-0.0634
606.00,-0.0634
604.00,-0.0634
602.00,-0.0634
600.00,-0.0634
598.00,-0.0634
596.00,-0.0634
594.00,-0.0636
592.00,-0.0635
590.00,-0.0635
588.00,-0.0636
586.00,-0.0636
584.00,-0.0637
582.00,-0.0637
580.00,-0.0636
578.00,-0.0637
576.00,-0.0636
574.00,-0.0636
572.00,-0.0637
570.00,-0.0637
568.00,-0.0637
566.00,-0.0637
564.00,-0.0636
562.00,-0.0637
560.00,-0.0636
558.00,-0.0637
556.00,-0.0637
554.00,-0.0636
552.00,-0.0637
550.00,-0.0637
548.00,-0.0636
546.00,-0.0636
544.00,-0.0636
542.00,-0.0635
540.00,-0.0636
538.00,-0.0636
536.00,-0.0638
534.00,-0.0639
532.00,-0.0638
530.00,-0.0639
528.00,-0.0639
526.00,-0.0638
524.00,-0.0639
522.00,-0.0639
520.00,-0.0639
518.00,-0.0639
516.00,-0.0637
514.00,-0.0639
512.00,-0.0640
510.00,-0.0639
508.00,-0.0639
506.00,-0.0637
504.00,-0.0638
502.00,-0.0640
500.00,-0.0638
