Created as New Dataset,Sample 040 By Analyst Date Thursday, March 27 2025
cm-1,A
4000.00,-0.0485
3999.00,-0.0485
3998.00,-0.0485
3997.00,-0.0485
3996.00,-0.0485
3995.00,-0.0485
3994.00,-0.0485
3993.00,-0.0484
3992.00,-0.0484
3991.00,-0.0484
3990.00,-0.0484
3989.00,-0.0484
3988.00,-0.0484
3987.00,-0.0484
3986.00,-0.0484
3985.00,-0.0484
3984.00,-0.0484
3983.00,-0.0484
3982.00,-0.0483
3981.00,-0.0483
3980.00,-0.0483
3979.00,-0.0483
3978.00,-0.0483
3977.00,-0.0483
3976.00,-0.0483
3975.00,-0.0483
3974.00,-0.0483
3973.00,-0.0483
3972.00,-0.0483
3971.00,-0.0482
3970.00,-0.0482
3969.00,-0.0482
3968.00,-0.0482
3967.00,-0.0482
3966.00,-0.0483
3965.00,-0.0483
3964.00,-0.0483
3963.00,-0.0483
3962.00,-0.0483
3961.00,-0.0483
3960.00,-0.0483
3959.00,-0.0483
3958.00,-0.0483
3957.00,-0.0483
3956.00,-0.0483
3955.00,-0.0483
3954.00,-0.0483
3953.00,-0.0483
3952.00,-0.0483
3951.00,-0.0484
3950.00,-0.0484
3949.00,-0.0484
3948.00,-0.0484
3947.00,-0.0484
3946.00,-0.0484
3945.00,-0.0484
3944.00,-0.0484
3943.00,-0.0483
3942.00,-0.0483
3941.00,-0.0483
3940.00,-0.0483
3939.00,-0.0483
3938.00,-0.0483
3937.00,-0.0483
3936.00,-0.0484
3935.00,-0.0484
3934.00,-0.0484
3933.00,-0.0483
3932.00,-0.0483
3931.00,-0.0483
3930.00,-0.0482
3929.00,-0.0482
3928.00,-0.0482
3927.00,-0.0482
3926.00,-0.0482
3925.00,-0.0482
3924.00,-0.0482
3923.00,-0.0482
3922.00,-0.0482
3921.00,-0.0482
3920.00,-0.0482
3919.00,-0.0482
3918.00,-0.0481
3917.00,-0.0481
3916.00,-0.0481
3915.00,-0.0480
3914.00,-0.0480
3913.00,-0.0480
3912.00,-0.0480
3911.00,-0.0481
3910.00,-0.0481
3909.00,-0.0482
3908.00,-0.0482
3907.00,-0.0482
3906.00,-0.0482
3905.00,-0.0482
3904.00,-0.0482
3903.00,-0.0482
3902.00,-0.0482
3901.00,-0.0481
3900.00,-0.0480
3899.00,-0.0479
3898.00,-0.0480
3897.00,-0.0480
3896.00,-0.0481
3895.00,-0.0481
3894.00,-0.0481
3893.00,-0.0481
3892.00,-0.0481
3891.00,-0.0481
3890.00,-0.0482
3889.00,-0.0482
3888.00,-0.0481
3887.00,-0.0481
3886.00,-0.0481
3885.00,-0.0481
3884.00,-0.0482
3883.00,-0.0481
3882.00,-0.0480
3881.00,-0.0480
3880.00,-0.0480
3879.00,-0.0480
3878.00,-0.0481
3877.00,-0.0481
3876.00,-0.0481
3875.00,-0.0481
3874.00,-0.0481
3873.00,-0.0482
3872.00,-0.0481
3871.00,-0.0480
3870.00,-0.0480
3869.00,-0.0480
3868.00,-0.0480
3867.00,-0.0480
3866.00,-0.0479
3865.00,-0.0479
3864.00,-0.0479
3863.00,-0.0480
3862.00,-0.0480
3861.00,-0.0480
3860.00,-0.0480
3859.00,-0.0480
3858.00,-0.0481
3857.00,-0.0481
3856.00,-0.0480
3855.00,-0.0479
3854.00,-0.0478
3853.00,-0.0479
3852.00,-0.0480
3851.00,-0.0480
3850.00,-0.0479
3849.00,-0.0478
3848.00,-0.0479
3847.00,-0.0480
3846.00,-0.0481
3845.00,-0.0482
3844.00,-0.0482
3843.00,-0.0483
3842.00,-0.0483
3841.00,-0.0482
3840.00,-0.0482
3839.00,-0.0481
3838.00,-0.0481
3837.00,-0.0481
3836.00,-0.0480
3835.00,-0.0480
3834.00,-0.0479
3833.00,-0.0479
3832.00,-0.0479
3831.00,-0.0480
3830.00,-0.0480
3829.00,-0.0480
3828.00,-0.0480
3827.00,-0.0480
3826.00,-0.0480
3825.00,-0.0481
3824.00,-0.0481
3823.00,-0.0480
3822.00,-0.0479
3821.00,-0.0479
3820.00,-0.0479
3819.00,-0.0479
3818.00,-0.0477
3817.00,-0.0476
3816.00,-0.0476
3815.00,-0.0477
3814.00,-0.0478
3813.00,-0.0477
3812.00,-0.0477
3811.00,-0.0477
3810.00,-0.0477
3809.00,-0.0478
3808.00,-0.0478
3807.00,-0.0478
3806.00,-0.0479
3805.00,-0.0479
3804.00,-0.0478
3803.00,-0.0477
3802.00,-0.0477
3801.00,-0.0477
3800.00,-0.0478
3799.00,-0.0478
3798.00,-0.0477
3797.00,-0.0477
3796.00,-0.0477
3795.00,-0.0477
3794.00,-0.0478
3793.00,-0.0478
3792.00,-0.0478
3791.00,-0.0478
3790.00,-0.0478
3789.00,-0.0479
3788.00,-0.0479
3787.00,-0.0479
3786.00,-0.0479
3785.00,-0.0479
3784.00,-0.0479
3783.00,-0.0479
3782.00,-0.0479
3781.00,-0.0479
3780.00,-0.0478
3779.00,-0.0478
3778.00,-0.0478
3777.00,-0.0478
3776.00,-0.0478
3775.00,-0.0478
3774.00,-0.0478
3773.00,-0.0479
3772.00,-0.0479
3771.00,-0.0478
3770.00,-0.0478
3769.00,-0.0479
3768.00,-0.0479
3767.00,-0.0478
3766.00,-0.0478
3765.00,-0.0478
3764.00,-0.0478
3763.00,-0.0478
3762.00,-0.0478
3761.00,-0.0478
3760.00,-0.0478
3759.00,-0.0479
3758.00,-0.0479
3757.00,-0.0479
3756.00,-0.0479
3755.00,-0.0479
3754.00,-0.0479
3753.00,-0.0479
3752.00,-0.0479
3751.00,-0.0479
3750.00,-0.0479
3749.00,-0.0479
3748.00,-0.0478
3747.00,-0.0476
3746.00,-0.0475
3745.00,-0.0474
3744.00,-0.0475
3743.00,-0.0476
3742.00,-0.0477
3741.00,-0.0477
3740.00,-0.0477
3739.00,-0.0478
3738.00,-0.0479
3737.00,-0.0479
3736.00,-0.0479
3735.00,-0.0478
3734.00,-0.0476
3733.00,-0.0475
3732.00,-0.0475
3731.00,-0.0475
3730.00,-0.0476
3729.00,-0.0476
3728.00,-0.0476
3727.00,-0.0476
3726.00,-0.0476
3725.00,-0.0476
3724.00,-0.0476
3723.00,-0.0476
3722.00,-0.0475
3721.00,-0.0475
3720.00,-0.0475
3719.00,-0.0475
3718.00,-0.0475
3717.00,-0.0475
3716.00,-0.0475
3715.00,-0.0475
3714.00,-0.0475
3713.00,-0.0475
3712.00,-0.0475
3711.00,-0.0475
3710.00,-0.0475
3709.00,-0.0475
3708.00,-0.0474
3707.00,-0.0474
3706.00,-0.0475
3705.00,-0.0475
3704.00,-0.0476
3703.00,-0.0476
3702.00,-0.0476
3701.00,-0.0477
3700.00,-0.0477
3699.00,-0.0477
3698.00,-0.0477
3697.00,-0.0478
3696.00,-0.0479
3695.00,-0.0479
3694.00,-0.0480
3693.00,-0.0481
3692.00,-0.0481
3691.00,-0.0481
3690.00,-0.0481
3689.00,-0.0481
3688.00,-0.0481
3687.00,-0.0481
3686.00,-0.0481
3685.00,-0.0481
3684.00,-0.0481
3683.00,-0.0482
3682.00,-0.0483
3681.00,-0.0483
3680.00,-0.0484
3679.00,-0.0485
3678.00,-0.0485
3677.00,-0.0484
3676.00,-0.0483
3675.00,-0.0483
3674.00,-0.0483
3673.00,-0.0482
3672.00,-0.0481
3671.00,-0.0481
3670.00,-0.0481
3669.00,-0.0481
3668.00,-0.0481
3667.00,-0.0481
3666.00,-0.0481
3665.00,-0.0481
3664.00,-0.0481
3663.00,-0.0481
3662.00,-0.0482
3661.00,-0.0482
3660.00,-0.0482
3659.00,-0.0482
3658.00,-0.0481
3657.00,-0.0481
3656.00,-0.0481
3655.00,-0.0482
3654.00,-0.0482
3653.00,-0.0482
3652.00,-0.0482
3651.00,-0.0482
3650.00,-0.0482
3649.00,-0.0481
3648.00,-0.0480
3647.00,-0.0479
3646.00,-0.0478
3645.00,-0.0478
3644.00,-0.0478
3643.00,-0.0479
3642.00,-0.0479
3641.00,-0.0480
3640.00,-0.0480
3639.00,-0.0480
3638.00,-0.0480
3637.00,-0.0480
3636.00,-0.0480
3635.00,-0.0480
3634.00,-0.0481
3633.00,-0.0481
3632.00,-0.0481
3631.00,-0.0481
3630.00,-0.0480
3629.00,-0.0479
3628.00,-0.0479
3627.00,-0.0479
3626.00,-0.0479
3625.00,-0.0478
3624.00,-0.0479
3623.00,-0.0480
3622.00,-0.0480
3621.00,-0.0481
3620.00,-0.0480
3619.00,-0.0480
3618.00,-0.0480
3617.00,-0.0480
3616.00,-0.0480
3615.00,-0.0480
3614.00,-0.0480
3613.00,-0.0480
3612.00,-0.0480
3611.00,-0.0480
3610.00,-0.0479
3609.00,-0.0479
3608.00,-0.0479
3607.00,-0.0479
3606.00,-0.0479
3605.00,-0.0479
3604.00,-0.0479
3603.00,-0.0479
3602.00,-0.0479
3601.00,-0.0480
3600.00,-0.0480
3599.00,-0.0480
3598.00,-0.0480
3597.00,-0.0480
3596.00,-0.0480
3595.00,-0.0480
3594.00,-0.0480
3593.00,-0.0480
3592.00,-0.0481
3591.00,-0.0481
3590.00,-0.0481
3589.00,-0.0481
3588.00,-0.0481
3587.00,-0.0480
3586.00,-0.0480
3585.00,-0.0480
3584.00,-0.0480
3583.00,-0.0480
3582.00,-0.0481
3581.00,-0.0481
3580.00,-0.0481
3579.00,-0.0482
3578.00,-0.0482
3577.00,-0.0482
3576.00,-0.0482
3575.00,-0.0482
3574.00,-0.0482
3573.00,-0.0483
3572.00,-0.0483
3571.00,-0.0484
3570.00,-0.0484
3569.00,-0.0484
3568.00,-0.0484
3567.00,-0.0483
3566.00,-0.0483
3565.00,-0.0482
3564.00,-0.0482
3563.00,-0.0482
3562.00,-0.0482
3561.00,-0.0482
3560.00,-0.0482
3559.00,-0.0482
3558.00,-0.0482
3557.00,-0.0482
3556.00,-0.0482
3555.00,-0.0482
3554.00,-0.0482
3553.00,-0.0482
3552.00,-0.0482
3551.00,-0.0482
3550.00,-0.0483
3549.00,-0.0483
3548.00,-0.0483
3547.00,-0.0482
3546.00,-0.0482
3545.00,-0.0482
3544.00,-0.0482
3543.00,-0.0481
3542.00,-0.0481
3541.00,-0.0481
3540.00,-0.0481
3539.00,-0.0482
3538.00,-0.0482
3537.00,-0.0482
3536.00,-0.0482
3535.00,-0.0482
3534.00,-0.0482
3533.00,-0.0482
3532.00,-0.0482
3531.00,-0.0482
3530.00,-0.0483
3529.00,-0.0483
3528.00,-0.0483
3527.00,-0.0483
3526.00,-0.0483
3525.00,-0.0483
3524.00,-0.0483
3523.00,-0.0483
3522.00,-0.0482
3521.00,-0.0482
3520.00,-0.0482
3519.00,-0.0482
3518.00,-0.0482
3517.00,-0.0482
3516.00,-0.0482
3515.00,-0.0482
3514.00,-0.0482
3513.00,-0.0483
3512.00,-0.0482
3511.00,-0.0482
3510.00,-0.0482
3509.00,-0.0482
3508.00,-0.0482
3507.00,-0.0482
3506.00,-0.0482
3505.00,-0.0482
3504.00,-0.0482
3503.00,-0.0482
3502.00,-0.0481
3501.00,-0.0481
3500.00,-0.0481
3499.00,-0.0481
3498.00,-0.0481
3497.00,-0.0481
3496.00,-0.0481
3495.00,-0.0481
3494.00,-0.0481
3493.00,-0.0481
3492.00,-0.0481
3491.00,-0.0481
3490.00,-0.0481
3489.00,-0.0482
3488.00,-0.0482
3487.00,-0.0482
3486.00,-0.0482
3485.00,-0.0482
3484.00,-0.0482
3483.00,-0.0482
3482.00,-0.0482
3481.00,-0.0483
3480.00,-0.0483
3479.00,-0.0483
3478.00,-0.0483
3477.00,-0.0483
3476.00,-0.0483
3475.00,-0.0483
3474.00,-0.0483
3473.00,-0.0484
3472.00,-0.0484
3471.00,-0.0484
3470.00,-0.0484
3469.00,-0.0484
3468.00,-0.0484
3467.00,-0.0484
3466.00,-0.0484
3465.00,-0.0484
3464.00,-0.0484
3463.00,-0.0484
3462.00,-0.0484
3461.00,-0.0484
3460.00,-0.0484
3459.00,-0.0484
3458.00,-0.0484
3457.00,-0.0484
3456.00,-0.0484
3455.00,-0.0484
3454.00,-0.0484
3453.00,-0.0484
3452.00,-0.0484
3451.00,-0.0484
3450.00,-0.0484
3449.00,-0.0484
3448.00,-0.0484
3447.00,-0.0484
3446.00,-0.0483
3445.00,-0.0483
3444.00,-0.0483
3443.00,-0.0483
3442.00,-0.0483
3441.00,-0.0483
3440.00,-0.0484
3439.00,-0.0484
3438.00,-0.0484
3437.00,-0.0484
3436.00,-0.0484
3435.00,-0.0484
3434.00,-0.0484
3433.00,-0.0484
3432.00,-0.0485
3431.00,-0.0485
3430.00,-0.0485
3429.00,-0.0485
3428.00,-0.0485
3427.00,-0.0485
3426.00,-0.0485
3425.00,-0.0485
3424.00,-0.0485
3423.00,-0.0485
3422.00,-0.0485
3421.00,-0.0485
3420.00,-0.0485
3419.00,-0.0485
3418.00,-0.0485
3417.00,-0.0485
3416.00,-0.0485
3415.00,-0.0485
3414.00,-0.0485
3413.00,-0.0485
3412.00,-0.0484
3411.00,-0.0484
3410.00,-0.0484
3409.00,-0.0484
3408.00,-0.0484
3407.00,-0.0483
3406.00,-0.0483
3405.00,-0.0483
3404.00,-0.0483
3403.00,-0.0483
3402.00,-0.0482
3401.00,-0.0482
3400.00,-0.0482
3399.00,-0.0482
3398.00,-0.0482
3397.00,-0.0481
3396.00,-0.0481
3395.00,-0.0481
3394.00,-0.0481
3393.00,-0.0481
3392.00,-0.0480
3391.00,-0.0480
3390.00,-0.0480
3389.00,-0.0480
3388.00,-0.0480
3387.00,-0.0480
3386.00,-0.0480
3385.00,-0.0480
3384.00,-0.0480
3383.00,-0.0480
3382.00,-0.0480
3381.00,-0.0480
3380.00,-0.0480
3379.00,-0.0480
3378.00,-0.0480
3377.00,-0.0480
3376.00,-0.0480
3375.00,-0.0480
3374.00,-0.0480
3373.00,-0.0480
3372.00,-0.0480
3371.00,-0.0481
3370.00,-0.0481
3369.00,-0.0481
3368.00,-0.0481
3367.00,-0.0481
3366.00,-0.0480
3365.00,-0.0480
3364.00,-0.0480
3363.00,-0.0480
3362.00,-0.0480
3361.00,-0.0480
3360.00,-0.0480
3359.00,-0.0480
3358.00,-0.0480
3357.00,-0.0479
3356.00,-0.0479
3355.00,-0.0479
3354.00,-0.0479
3353.00,-0.0479
3352.00,-0.0479
3351.00,-0.0479
3350.00,-0.0479
3349.00,-0.0479
3348.00,-0.0479
3347.00,-0.0479
3346.00,-0.0479
3345.00,-0.0479
3344.00,-0.0479
3343.00,-0.0479
3342.00,-0.0479
3341.00,-0.0479
3340.00,-0.0479
3339.00,-0.0479
3338.00,-0.0479
3337.00,-0.0479
3336.00,-0.0479
3335.00,-0.0479
3334.00,-0.0479
3333.00,-0.0479
3332.00,-0.0479
3331.00,-0.0479
3330.00,-0.0479
3329.00,-0.0479
3328.00,-0.0480
3327.00,-0.0480
3326.00,-0.0480
3325.00,-0.0480
3324.00,-0.0480
3323.00,-0.0480
3322.00,-0.0481
3321.00,-0.0481
3320.00,-0.0481
3319.00,-0.0481
3318.00,-0.0481
3317.00,-0.0481
3316.00,-0.0482
3315.00,-0.0482
3314.00,-0.0482
3313.00,-0.0482
3312.00,-0.0482
3311.00,-0.0483
3310.00,-0.0483
3309.00,-0.0483
3308.00,-0.0483
3307.00,-0.0484
3306.00,-0.0484
3305.00,-0.0484
3304.00,-0.0484
3303.00,-0.0484
3302.00,-0.0484
3301.00,-0.0484
3300.00,-0.0484
3299.00,-0.0483
3298.00,-0.0483
3297.00,-0.0483
3296.00,-0.0483
3295.00,-0.0483
3294.00,-0.0482
3293.00,-0.0482
3292.00,-0.0482
3291.00,-0.0481
3290.00,-0.0481
3289.00,-0.0480
3288.00,-0.0480
3287.00,-0.0480
3286.00,-0.0480
3285.00,-0.0480
3284.00,-0.0480
3283.00,-0.0479
3282.00,-0.0479
3281.00,-0.0479
3280.00,-0.0479
3279.00,-0.0479
3278.00,-0.0479
3277.00,-0.0479
3276.00,-0.0479
3275.00,-0.0479
3274.00,-0.0479
3273.00,-0.0479
3272.00,-0.0479
3271.00,-0.0479
3270.00,-0.0478
3269.00,-0.0478
3268.00,-0.0478
3267.00,-0.0478
3266.00,-0.0478
3265.00,-0.0478
3264.00,-0.0478
3263.00,-0.0478
3262.00,-0.0478
3261.00,-0.0478
3260.00,-0.0478
3259.00,-0.0478
3258.00,-0.0478
3257.00,-0.0478
3256.00,-0.0478
3255.00,-0.0478
3254.00,-0.0478
3253.00,-0.0478
3252.00,-0.0478
3251.00,-0.0478
3250.00,-0.0478
3249.00,-0.0478
3248.00,-0.0478
3247.00,-0.0478
3246.00,-0.0478
3245.00,-0.0478
3244.00,-0.0478
3243.00,-0.0478
3242.00,-0.0478
3241.00,-0.0478
3240.00,-0.0478
3239.00,-0.0478
3238.00,-0.0478
3237.00,-0.0478
3236.00,-0.0478
3235.00,-0.0478
3234.00,-0.0478
3233.00,-0.0478
3232.00,-0.0478
3231.00,-0.0478
3230.00,-0.0478
3229.00,-0.0478
3228.00,-0.0478
3227.00,-0.0478
3226.00,-0.0478
3225.00,-0.0478
3224.00,-0.0479
3223.00,-0.0479
3222.00,-0.0479
3221.00,-0.0479
3220.00,-0.0479
3219.00,-0.0479
3218.00,-0.0480
3217.00,-0.0480
3216.00,-0.0480
3215.00,-0.0480
3214.00,-0.0480
3213.00,-0.0480
3212.00,-0.0481
3211.00,-0.0481
3210.00,-0.0481
3209.00,-0.0481
3208.00,-0.0481
3207.00,-0.0481
3206.00,-0.0481
3205.00,-0.0481
3204.00,-0.0481
3203.00,-0.0481
3202.00,-0.0481
3201.00,-0.0482
3200.00,-0.0482
3199.00,-0.0482
3198.00,-0.0482
3197.00,-0.0481
3196.00,-0.0481
3195.00,-0.0481
3194.00,-0.0481
3193.00,-0.0481
3192.00,-0.0481
3191.00,-0.0481
3190.00,-0.0481
3189.00,-0.0481
3188.00,-0.0481
3187.00,-0.0481
3186.00,-0.0481
3185.00,-0.0480
3184.00,-0.0480
3183.00,-0.0480
3182.00,-0.0480
3181.00,-0.0480
3180.00,-0.0480
3179.00,-0.0480
3178.00,-0.0480
3177.00,-0.0480
3176.00,-0.0480
3175.00,-0.0480
3174.00,-0.0480
3173.00,-0.0480
3172.00,-0.0480
3171.00,-0.0480
3170.00,-0.0480
3169.00,-0.0480
3168.00,-0.0480
3167.00,-0.0480
3166.00,-0.0480
3165.00,-0.0480
3164.00,-0.0480
3163.00,-0.0480
3162.00,-0.0480
3161.00,-0.0480
3160.00,-0.0481
3159.00,-0.0481
3158.00,-0.0481
3157.00,-0.0481
3156.00,-0.0481
3155.00,-0.0481
3154.00,-0.0481
3153.00,-0.0481
3152.00,-0.0481
3151.00,-0.0481
3150.00,-0.0481
3149.00,-0.0481
3148.00,-0.0481
3147.00,-0.0481
3146.00,-0.0481
3145.00,-0.0481
3144.00,-0.0481
3143.00,-0.0481
3142.00,-0.0481
3141.00,-0.0481
3140.00,-0.0481
3139.00,-0.0481
3138.00,-0.0481
3137.00,-0.0481
3136.00,-0.0481
3135.00,-0.0481
3134.00,-0.0481
3133.00,-0.0481
3132.00,-0.0481
3131.00,-0.0481
3130.00,-0.0481
3129.00,-0.0481
3128.00,-0.0481
3127.00,-0.0481
3126.00,-0.0481
3125.00,-0.0481
3124.00,-0.0481
3123.00,-0.0481
3122.00,-0.0481
3121.00,-0.0481
3120.00,-0.0481
3119.00,-0.0481
3118.00,-0.0482
3117.00,-0.0482
3116.00,-0.0482
3115.00,-0.0482
3114.00,-0.0482
3113.00,-0.0482
3112.00,-0.0482
3111.00,-0.0483
3110.00,-0.0483
3109.00,-0.0483
3108.00,-0.0483
3107.00,-0.0483
3106.00,-0.0483
3105.00,-0.0484
3104.00,-0.0484
3103.00,-0.0484
3102.00,-0.0484
3101.00,-0.0484
3100.00,-0.0484
3099.00,-0.0484
3098.00,-0.0484
3097.00,-0.0484
3096.00,-0.0484
3095.00,-0.0484
3094.00,-0.0484
3093.00,-0.0484
3092.00,-0.0484
3091.00,-0.0484
3090.00,-0.0484
3089.00,-0.0484
3088.00,-0.0484
3087.00,-0.0484
3086.00,-0.0484
3085.00,-0.0484
3084.00,-0.0484
3083.00,-0.0484
3082.00,-0.0484
3081.00,-0.0484
3080.00,-0.0484
3079.00,-0.0484
3078.00,-0.0483
3077.00,-0.0483
3076.00,-0.0483
3075.00,-0.0483
3074.00,-0.0483
3073.00,-0.0483
3072.00,-0.0483
3071.00,-0.0483
3070.00,-0.0483
3069.00,-0.0483
3068.00,-0.0483
3067.00,-0.0484
3066.00,-0.0484
3065.00,-0.0484
3064.00,-0.0484
3063.00,-0.0484
3062.00,-0.0484
3061.00,-0.0484
3060.00,-0.0484
3059.00,-0.0484
3058.00,-0.0484
3057.00,-0.0484
3056.00,-0.0484
3055.00,-0.0484
3054.00,-0.0485
3053.00,-0.0485
3052.00,-0.0485
3051.00,-0.0485
3050.00,-0.0485
3049.00,-0.0485
3048.00,-0.0485
3047.00,-0.0485
3046.00,-0.0485
3045.00,-0.0485
3044.00,-0.0485
3043.00,-0.0485
3042.00,-0.0485
3041.00,-0.0485
3040.00,-0.0485
3039.00,-0.0485
3038.00,-0.0485
3037.00,-0.0485
3036.00,-0.0485
3035.00,-0.0485
3034.00,-0.0485
3033.00,-0.0485
3032.00,-0.0485
3031.00,-0.0485
3030.00,-0.0484
3029.00,-0.0484
3028.00,-0.0484
3027.00,-0.0484
3026.00,-0.0484
3025.00,-0.0484
3024.00,-0.0484
3023.00,-0.0484
3022.00,-0.0484
3021.00,-0.0484
3020.00,-0.0484
3019.00,-0.0484
3018.00,-0.0484
3017.00,-0.0484
3016.00,-0.0484
3015.00,-0.0484
3014.00,-0.0484
3013.00,-0.0484
3012.00,-0.0484
3011.00,-0.0484
3010.00,-0.0484
3009.00,-0.0484
3008.00,-0.0484
3007.00,-0.0484
3006.00,-0.0484
3005.00,-0.0484
3004.00,-0.0485
3003.00,-0.0485
3002.00,-0.0485
3001.00,-0.0485
3000.00,-0.0485
2999.00,-0.0485
2998.00,-0.0485
2997.00,-0.0485
2996.00,-0.0485
2995.00,-0.0485
2994.00,-0.0485
2993.00,-0.0485
2992.00,-0.0485
2991.00,-0.0484
2990.00,-0.0484
2989.00,-0.0484
2988.00,-0.0484
2987.00,-0.0484
2986.00,-0.0484
2985.00,-0.0484
2984.00,-0.0484
2983.00,-0.0484
2982.00,-0.0484
2981.00,-0.0484
2980.00,-0.0484
2979.00,-0.0484
2978.00,-0.0484
2977.00,-0.0484
2976.00,-0.0484
2975.00,-0.0484
2974.00,-0.0483
2973.00,-0.0483
2972.00,-0.0483
2971.00,-0.0483
2970.00,-0.0483
2969.00,-0.0483
2968.00,-0.0483
2967.00,-0.0483
2966.00,-0.0483
2965.00,-0.0483
2964.00,-0.0483
2963.00,-0.0483
2962.00,-0.0483
2961.00,-0.0483
2960.00,-0.0484
2959.00,-0.0484
2958.00,-0.0484
2957.00,-0.0484
2956.00,-0.0484
2955.00,-0.0484
2954.00,-0.0484
2953.00,-0.0484
2952.00,-0.0484
2951.00,-0.0484
2950.00,-0.0484
2949.00,-0.0484
2948.00,-0.0484
2947.00,-0.0484
2946.00,-0.0484
2945.00,-0.0484
2944.00,-0.0485
2943.00,-0.0485
2942.00,-0.0485
2941.00,-0.0485
2940.00,-0.0485
2939.00,-0.0485
2938.00,-0.0485
2937.00,-0.0485
2936.00,-0.0485
2935.00,-0.0485
2934.00,-0.0485
2933.00,-0.0485
2932.00,-0.0485
2931.00,-0.0485
2930.00,-0.0485
2929.00,-0.0485
2928.00,-0.0485
2927.00,-0.0485
2926.00,-0.0485
2925.00,-0.0484
2924.00,-0.0484
2923.00,-0.0484
2922.00,-0.0484
2921.00,-0.0484
2920.00,-0.0484
2919.00,-0.0484
2918.00,-0.0484
2917.00,-0.0483
2916.00,-0.0483
2915.00,-0.0483
2914.00,-0.0483
2913.00,-0.0483
2912.00,-0.0483
2911.00,-0.0483
2910.00,-0.0483
2909.00,-0.0483
2908.00,-0.0483
2907.00,-0.0483
2906.00,-0.0483
2905.00,-0.0483
2904.00,-0.0483
2903.00,-0.0483
2902.00,-0.0483
2901.00,-0.0483
2900.00,-0.0483
2899.00,-0.0483
2898.00,-0.0483
2897.00,-0.0483
2896.00,-0.0484
2895.00,-0.0484
2894.00,-0.0484
2893.00,-0.0484
2892.00,-0.0484
2891.00,-0.0484
2890.00,-0.0484
2889.00,-0.0484
2888.00,-0.0484
2887.00,-0.0484
2886.00,-0.0484
2885.00,-0.0484
2884.00,-0.0484
2883.00,-0.0484
2882.00,-0.0484
2881.00,-0.0484
2880.00,-0.0484
2879.00,-0.0484
2878.00,-0.0484
2877.00,-0.0484
2876.00,-0.0484
2875.00,-0.0484
2874.00,-0.0484
2873.00,-0.0484
2872.00,-0.0484
2871.00,-0.0484
2870.00,-0.0483
2869.00,-0.0483
2868.00,-0.0483
2867.00,-0.0483
2866.00,-0.0483
2865.00,-0.0483
2864.00,-0.0483
2863.00,-0.0483
2862.00,-0.0483
2861.00,-0.0483
2860.00,-0.0483
2859.00,-0.0483
2858.00,-0.0483
2857.00,-0.0483
2856.00,-0.0483
2855.00,-0.0483
2854.00,-0.0483
2853.00,-0.0483
2852.00,-0.0483
2851.00,-0.0483
2850.00,-0.0483
2849.00,-0.0483
2848.00,-0.0484
2847.00,-0.0484
2846.00,-0.0484
2845.00,-0.0484
2844.00,-0.0484
2843.00,-0.0484
2842.00,-0.0484
2841.00,-0.0484
2840.00,-0.0484
2839.00,-0.0484
2838.00,-0.0484
2837.00,-0.0485
2836.00,-0.0485
2835.00,-0.0485
2834.00,-0.0485
2833.00,-0.0485
2832.00,-0.0485
2831.00,-0.0485
2830.00,-0.0485
2829.00,-0.0485
2828.00,-0.0485
2827.00,-0.0485
2826.00,-0.0484
2825.00,-0.0484
2824.00,-0.0484
2823.00,-0.0484
2822.00,-0.0484
2821.00,-0.0484
2820.00,-0.0484
2819.00,-0.0483
2818.00,-0.0483
2817.00,-0.0483
2816.00,-0.0483
2815.00,-0.0483
2814.00,-0.0483
2813.00,-0.0482
2812.00,-0.0482
2811.00,-0.0482
2810.00,-0.0482
2809.00,-0.0482
2808.00,-0.0482
2807.00,-0.0482
2806.00,-0.0482
2805.00,-0.0482
2804.00,-0.0482
2803.00,-0.0482
2802.00,-0.0482
2801.00,-0.0482
2800.00,-0.0482
2799.00,-0.0482
2798.00,-0.0482
2797.00,-0.0482
2796.00,-0.0483
2795.00,-0.0483
2794.00,-0.0483
2793.00,-0.0483
2792.00,-0.0483
2791.00,-0.0483
2790.00,-0.0483
2789.00,-0.0483
2788.00,-0.0483
2787.00,-0.0483
2786.00,-0.0483
2785.00,-0.0483
2784.00,-0.0484
2783.00,-0.0484
2782.00,-0.0484
2781.00,-0.0484
2780.00,-0.0484
2779.00,-0.0484
2778.00,-0.0484
2777.00,-0.0483
2776.00,-0.0483
2775.00,-0.0483
2774.00,-0.0483
2773.00,-0.0483
2772.00,-0.0483
2771.00,-0.0483
2770.00,-0.0483
2769.00,-0.0483
2768.00,-0.0483
2767.00,-0.0483
2766.00,-0.0483
2765.00,-0.0482
2764.00,-0.0482
2763.00,-0.0482
2762.00,-0.0482
2761.00,-0.0482
2760.00,-0.0482
2759.00,-0.0482
2758.00,-0.0482
2757.00,-0.0482
2756.00,-0.0482
2755.00,-0.0482
2754.00,-0.0482
2753.00,-0.0482
2752.00,-0.0482
2751.00,-0.0482
2750.00,-0.0482
2749.00,-0.0482
2748.00,-0.0482
2747.00,-0.0482
2746.00,-0.0482
2745.00,-0.0482
2744.00,-0.0482
2743.00,-0.0483
2742.00,-0.0483
2741.00,-0.0483
2740.00,-0.0483
2739.00,-0.0483
2738.00,-0.0483
2737.00,-0.0483
2736.00,-0.0483
2735.00,-0.0483
2734.00,-0.0483
2733.00,-0.0483
2732.00,-0.0483
2731.00,-0.0483
2730.00,-0.0483
2729.00,-0.0483
2728.00,-0.0483
2727.00,-0.0483
2726.00,-0.0483
2725.00,-0.0483
2724.00,-0.0483
2723.00,-0.0482
2722.00,-0.0482
2721.00,-0.0482
2720.00,-0.0482
2719.00,-0.0482
2718.00,-0.0481
2717.00,-0.0481
2716.00,-0.0481
2715.00,-0.0481
2714.00,-0.0481
2713.00,-0.0481
2712.00,-0.0481
2711.00,-0.0480
2710.00,-0.0480
2709.00,-0.0480
2708.00,-0.0480
2707.00,-0.0480
2706.00,-0.0480
2705.00,-0.0480
2704.00,-0.0480
2703.00,-0.0480
2702.00,-0.0479
2701.00,-0.0479
2700.00,-0.0479
2699.00,-0.0479
2698.00,-0.0480
2697.00,-0.0480
2696.00,-0.0480
2695.00,-0.0480
2694.00,-0.0480
2693.00,-0.0480
2692.00,-0.0480
2691.00,-0.0480
2690.00,-0.0480
2689.00,-0.0480
2688.00,-0.0480
2687.00,-0.0480
2686.00,-0.0481
2685.00,-0.0481
2684.00,-0.0481
2683.00,-0.0481
2682.00,-0.0481
2681.00,-0.0481
2680.00,-0.0481
2679.00,-0.0482
2678.00,-0.0482
2677.00,-0.0482
2676.00,-0.0482
2675.00,-0.0482
2674.00,-0.0482
2673.00,-0.0482
2672.00,-0.0482
2671.00,-0.0482
2670.00,-0.0482
2669.00,-0.0482
2668.00,-0.0482
2667.00,-0.0481
2666.00,-0.0481
2665.00,-0.0481
2664.00,-0.0481
2663.00,-0.0481
2662.00,-0.0481
2661.00,-0.0481
2660.00,-0.0480
2659.00,-0.0480
2658.00,-0.0480
2657.00,-0.0480
2656.00,-0.0480
2655.00,-0.0479
2654.00,-0.0479
2653.00,-0.0479
2652.00,-0.0479
2651.00,-0.0479
2650.00,-0.0479
2649.00,-0.0479
2648.00,-0.0479
2647.00,-0.0479
2646.00,-0.0479
2645.00,-0.0479
2644.00,-0.0479
2643.00,-0.0479
2642.00,-0.0479
2641.00,-0.0479
2640.00,-0.0479
2639.00,-0.0479
2638.00,-0.0479
2637.00,-0.0479
2636.00,-0.0479
2635.00,-0.0479
2634.00,-0.0479
2633.00,-0.0479
2632.00,-0.0479
2631.00,-0.0479
2630.00,-0.0479
2629.00,-0.0479
2628.00,-0.0479
2627.00,-0.0479
2626.00,-0.0479
2625.00,-0.0479
2624.00,-0.0479
2623.00,-0.0480
2622.00,-0.0480
2621.00,-0.0480
2620.00,-0.0480
2619.00,-0.0480
2618.00,-0.0480
2617.00,-0.0480
2616.00,-0.0480
2615.00,-0.0480
2614.00,-0.0480
2613.00,-0.0480
2612.00,-0.0480
2611.00,-0.0479
2610.00,-0.0479
2609.00,-0.0479
2608.00,-0.0479
2607.00,-0.0479
2606.00,-0.0479
2605.00,-0.0479
2604.00,-0.0479
2603.00,-0.0479
2602.00,-0.0479
2601.00,-0.0478
2600.00,-0.0478
2599.00,-0.0478
2598.00,-0.0478
2597.00,-0.0478
2596.00,-0.0478
2595.00,-0.0478
2594.00,-0.0478
2593.00,-0.0478
2592.00,-0.0478
2591.00,-0.0478
2590.00,-0.0478
2589.00,-0.0478
2588.00,-0.0479
2587.00,-0.0479
2586.00,-0.0479
2585.00,-0.0479
2584.00,-0.0479
2583.00,-0.0479
2582.00,-0.0479
2581.00,-0.0479
2580.00,-0.0479
2579.00,-0.0479
2578.00,-0.0480
2577.00,-0.0480
2576.00,-0.0480
2575.00,-0.0480
2574.00,-0.0480
2573.00,-0.0480
2572.00,-0.0480
2571.00,-0.0480
2570.00,-0.0480
2569.00,-0.0480
2568.00,-0.0480
2567.00,-0.0480
2566.00,-0.0480
2565.00,-0.0480
2564.00,-0.0480
2563.00,-0.0480
2562.00,-0.0480
2561.00,-0.0479
2560.00,-0.0479
2559.00,-0.0479
2558.00,-0.0479
2557.00,-0.0479
2556.00,-0.0479
2555.00,-0.0478
2554.00,-0.0478
2553.00,-0.0478
2552.00,-0.0478
2551.00,-0.0478
2550.00,-0.0477
2549.00,-0.0477
2548.00,-0.0477
2547.00,-0.0477
2546.00,-0.0477
2545.00,-0.0476
2544.00,-0.0476
2543.00,-0.0476
2542.00,-0.0476
2541.00,-0.0476
2540.00,-0.0476
2539.00,-0.0476
2538.00,-0.0476
2537.00,-0.0476
2536.00,-0.0476
2535.00,-0.0476
2534.00,-0.0476
2533.00,-0.0476
2532.00,-0.0476
2531.00,-0.0476
2530.00,-0.0476
2529.00,-0.0476
2528.00,-0.0477
2527.00,-0.0477
2526.00,-0.0477
2525.00,-0.0477
2524.00,-0.0477
2523.00,-0.0477
2522.00,-0.0477
2521.00,-0.0477
2520.00,-0.0477
2519.00,-0.0477
2518.00,-0.0477
2517.00,-0.0477
2516.00,-0.0477
2515.00,-0.0477
2514.00,-0.0477
2513.00,-0.0477
2512.00,-0.0477
2511.00,-0.0477
2510.00,-0.0476
2509.00,-0.0476
2508.00,-0.0476
2507.00,-0.0476
2506.00,-0.0476
2505.00,-0.0475
2504.00,-0.0475
2503.00,-0.0475
2502.00,-0.0475
2501.00,-0.0475
2500.00,-0.0475
2499.00,-0.0474
2498.00,-0.0474
2497.00,-0.0474
2496.00,-0.0474
2495.00,-0.0474
2494.00,-0.0474
2493.00,-0.0474
2492.00,-0.0473
2491.00,-0.0473
2490.00,-0.0473
2489.00,-0.0473
2488.00,-0.0473
2487.00,-0.0473
2486.00,-0.0473
2485.00,-0.0473
2484.00,-0.0473
2483.00,-0.0473
2482.00,-0.0473
2481.00,-0.0473
2480.00,-0.0473
2479.00,-0.0473
2478.00,-0.0473
2477.00,-0.0474
2476.00,-0.0474
2475.00,-0.0474
2474.00,-0.0474
2473.00,-0.0474
2472.00,-0.0474
2471.00,-0.0474
2470.00,-0.0474
2469.00,-0.0474
2468.00,-0.0474
2467.00,-0.0474
2466.00,-0.0474
2465.00,-0.0474
2464.00,-0.0474
2463.00,-0.0474
2462.00,-0.0474
2461.00,-0.0474
2460.00,-0.0474
2459.00,-0.0474
2458.00,-0.0474
2457.00,-0.0474
2456.00,-0.0474
2455.00,-0.0473
2454.00,-0.0473
2453.00,-0.0473
2452.00,-0.0473
2451.00,-0.0473
2450.00,-0.0473
2449.00,-0.0473
2448.00,-0.0473
2447.00,-0.0472
2446.00,-0.0472
2445.00,-0.0472
2444.00,-0.0472
2443.00,-0.0472
2442.00,-0.0472
2441.00,-0.0472
2440.00,-0.0472
2439.00,-0.0472
2438.00,-0.0472
2437.00,-0.0473
2436.00,-0.0473
2435.00,-0.0473
2434.00,-0.0473
2433.00,-0.0473
2432.00,-0.0473
2431.00,-0.0473
2430.00,-0.0473
2429.00,-0.0473
2428.00,-0.0474
2427.00,-0.0474
2426.00,-0.0474
2425.00,-0.0474
2424.00,-0.0474
2423.00,-0.0475
2422.00,-0.0475
2421.00,-0.0475
2420.00,-0.0476
2419.00,-0.0476
2418.00,-0.0476
2417.00,-0.0476
2416.00,-0.0476
2415.00,-0.0476
2414.00,-0.0477
2413.00,-0.0477
2412.00,-0.0477
2411.00,-0.0477
2410.00,-0.0477
2409.00,-0.0477
2408.00,-0.0477
2407.00,-0.0477
2406.00,-0.0477
2405.00,-0.0476
2404.00,-0.0476
2403.00,-0.0476
2402.00,-0.0476
2401.00,-0.0476
2400.00,-0.0476
2399.00,-0.0476
2398.00,-0.0475
2397.00,-0.0475
2396.00,-0.0475
2395.00,-0.0475
2394.00,-0.0475
2393.00,-0.0475
2392.00,-0.0475
2391.00,-0.0474
2390.00,-0.0474
2389.00,-0.0474
2388.00,-0.0474
2387.00,-0.0474
2386.00,-0.0474
2385.00,-0.0474
2384.00,-0.0474
2383.00,-0.0474
2382.00,-0.0474
2381.00,-0.0474
2380.00,-0.0474
2379.00,-0.0474
2378.00,-0.0474
2377.00,-0.0474
2376.00,-0.0474
2375.00,-0.0474
2374.00,-0.0474
2373.00,-0.0474
2372.00,-0.0474
2371.00,-0.0474
2370.00,-0.0474
2369.00,-0.0473
2368.00,-0.0473
2367.00,-0.0473
2366.00,-0.0473
2365.00,-0.0473
2364.00,-0.0473
2363.00,-0.0473
2362.00,-0.0473
2361.00,-0.0473
2360.00,-0.0473
2359.00,-0.0472
2358.00,-0.0472
2357.00,-0.0472
2356.00,-0.0472
2355.00,-0.0472
2354.00,-0.0473
2353.00,-0.0474
2352.00,-0.0474
2351.00,-0.0473
2350.00,-0.0470
2349.00,-0.0468
2348.00,-0.0467
2347.00,-0.0470
2346.00,-0.0473
2345.00,-0.0474
2344.00,-0.0474
2343.00,-0.0474
2342.00,-0.0473
2341.00,-0.0473
2340.00,-0.0473
2339.00,-0.0473
2338.00,-0.0473
2337.00,-0.0473
2336.00,-0.0473
2335.00,-0.0472
2334.00,-0.0472
2333.00,-0.0473
2332.00,-0.0473
2331.00,-0.0474
2330.00,-0.0474
2329.00,-0.0473
2328.00,-0.0473
2327.00,-0.0472
2326.00,-0.0472
2325.00,-0.0472
2324.00,-0.0473
2323.00,-0.0473
2322.00,-0.0473
2321.00,-0.0473
2320.00,-0.0473
2319.00,-0.0473
2318.00,-0.0472
2317.00,-0.0472
2316.00,-0.0472
2315.00,-0.0472
2314.00,-0.0473
2313.00,-0.0473
2312.00,-0.0474
2311.00,-0.0474
2310.00,-0.0474
2309.00,-0.0474
2308.00,-0.0474
2307.00,-0.0474
2306.00,-0.0474
2305.00,-0.0474
2304.00,-0.0474
2303.00,-0.0474
2302.00,-0.0474
2301.00,-0.0474
2300.00,-0.0474
2299.00,-0.0474
2298.00,-0.0473
2297.00,-0.0473
2296.00,-0.0473
2295.00,-0.0473
2294.00,-0.0473
2293.00,-0.0473
2292.00,-0.0473
2291.00,-0.0473
2290.00,-0.0472
2289.00,-0.0472
2288.00,-0.0472
2287.00,-0.0472
2286.00,-0.0472
2285.00,-0.0472
2284.00,-0.0471
2283.00,-0.0471
2282.00,-0.0471
2281.00,-0.0471
2280.00,-0.0471
2279.00,-0.0471
2278.00,-0.0471
2277.00,-0.0471
2276.00,-0.0471
2275.00,-0.0471
2274.00,-0.0471
2273.00,-0.0470
2272.00,-0.0470
2271.00,-0.0470
2270.00,-0.0470
2269.00,-0.0471
2268.00,-0.0471
2267.00,-0.0471
2266.00,-0.0471
2265.00,-0.0471
2264.00,-0.0471
2263.00,-0.0471
2262.00,-0.0471
2261.00,-0.0472
2260.00,-0.0472
2259.00,-0.0472
2258.00,-0.0472
2257.00,-0.0472
2256.00,-0.0472
2255.00,-0.0472
2254.00,-0.0472
2253.00,-0.0472
2252.00,-0.0472
2251.00,-0.0472
2250.00,-0.0472
2249.00,-0.0472
2248.00,-0.0472
2247.00,-0.0472
2246.00,-0.0472
2245.00,-0.0472
2244.00,-0.0472
2243.00,-0.0472
2242.00,-0.0472
2241.00,-0.0472
2240.00,-0.0471
2239.00,-0.0471
2238.00,-0.0471
2237.00,-0.0471
2236.00,-0.0471
2235.00,-0.0470
2234.00,-0.0470
2233.00,-0.0470
2232.00,-0.0470
2231.00,-0.0470
2230.00,-0.0470
2229.00,-0.0469
2228.00,-0.0469
2227.00,-0.0469
2226.00,-0.0469
2225.00,-0.0469
2224.00,-0.0469
2223.00,-0.0469
2222.00,-0.0468
2221.00,-0.0468
2220.00,-0.0468
2219.00,-0.0468
2218.00,-0.0468
2217.00,-0.0468
2216.00,-0.0468
2215.00,-0.0469
2214.00,-0.0469
2213.00,-0.0469
2212.00,-0.0469
2211.00,-0.0469
2210.00,-0.0469
2209.00,-0.0469
2208.00,-0.0469
2207.00,-0.0469
2206.00,-0.0470
2205.00,-0.0470
2204.00,-0.0470
2203.00,-0.0470
2202.00,-0.0470
2201.00,-0.0470
2200.00,-0.0470
2199.00,-0.0470
2198.00,-0.0469
2197.00,-0.0469
2196.00,-0.0469
2195.00,-0.0469
2194.00,-0.0469
2193.00,-0.0469
2192.00,-0.0469
2191.00,-0.0468
2190.00,-0.0468
2189.00,-0.0468
2188.00,-0.0468
2187.00,-0.0467
2186.00,-0.0467
2185.00,-0.0467
2184.00,-0.0467
2183.00,-0.0467
2182.00,-0.0466
2181.00,-0.0466
2180.00,-0.0466
2179.00,-0.0466
2178.00,-0.0466
2177.00,-0.0466
2176.00,-0.0466
2175.00,-0.0466
2174.00,-0.0466
2173.00,-0.0466
2172.00,-0.0466
2171.00,-0.0466
2170.00,-0.0466
2169.00,-0.0466
2168.00,-0.0466
2167.00,-0.0466
2166.00,-0.0466
2165.00,-0.0466
2164.00,-0.0466
2163.00,-0.0467
2162.00,-0.0467
2161.00,-0.0467
2160.00,-0.0467
2159.00,-0.0467
2158.00,-0.0467
2157.00,-0.0468
2156.00,-0.0468
2155.00,-0.0468
2154.00,-0.0468
2153.00,-0.0468
2152.00,-0.0468
2151.00,-0.0468
2150.00,-0.0468
2149.00,-0.0468
2148.00,-0.0468
2147.00,-0.0468
2146.00,-0.0469
2145.00,-0.0469
2144.00,-0.0468
2143.00,-0.0468
2142.00,-0.0468
2141.00,-0.0468
2140.00,-0.0468
2139.00,-0.0468
2138.00,-0.0468
2137.00,-0.0468
2136.00,-0.0467
2135.00,-0.0467
2134.00,-0.0467
2133.00,-0.0467
2132.00,-0.0467
2131.00,-0.0466
2130.00,-0.0466
2129.00,-0.0466
2128.00,-0.0466
2127.00,-0.0466
2126.00,-0.0466
2125.00,-0.0466
2124.00,-0.0466
2123.00,-0.0466
2122.00,-0.0466
2121.00,-0.0465
2120.00,-0.0465
2119.00,-0.0466
2118.00,-0.0466
2117.00,-0.0466
2116.00,-0.0466
2115.00,-0.0466
2114.00,-0.0466
2113.00,-0.0466
2112.00,-0.0466
2111.00,-0.0466
2110.00,-0.0466
2109.00,-0.0466
2108.00,-0.0466
2107.00,-0.0466
2106.00,-0.0466
2105.00,-0.0466
2104.00,-0.0466
2103.00,-0.0466
2102.00,-0.0467
2101.00,-0.0467
2100.00,-0.0467
2099.00,-0.0467
2098.00,-0.0467
2097.00,-0.0467
2096.00,-0.0467
2095.00,-0.0467
2094.00,-0.0467
2093.00,-0.0467
2092.00,-0.0467
2091.00,-0.0467
2090.00,-0.0467
2089.00,-0.0467
2088.00,-0.0467
2087.00,-0.0467
2086.00,-0.0467
2085.00,-0.0467
2084.00,-0.0467
2083.00,-0.0467
2082.00,-0.0467
2081.00,-0.0467
2080.00,-0.0467
2079.00,-0.0467
2078.00,-0.0467
2077.00,-0.0466
2076.00,-0.0466
2075.00,-0.0466
2074.00,-0.0466
2073.00,-0.0466
2072.00,-0.0466
2071.00,-0.0466
2070.00,-0.0466
2069.00,-0.0466
2068.00,-0.0466
2067.00,-0.0465
2066.00,-0.0465
2065.00,-0.0465
2064.00,-0.0465
2063.00,-0.0465
2062.00,-0.0465
2061.00,-0.0465
2060.00,-0.0465
2059.00,-0.0465
2058.00,-0.0465
2057.00,-0.0465
2056.00,-0.0465
2055.00,-0.0465
2054.00,-0.0465
2053.00,-0.0466
2052.00,-0.0466
2051.00,-0.0466
2050.00,-0.0466
2049.00,-0.0466
2048.00,-0.0466
2047.00,-0.0466
2046.00,-0.0466
2045.00,-0.0467
2044.00,-0.0467
2043.00,-0.0467
2042.00,-0.0467
2041.00,-0.0467
2040.00,-0.0467
2039.00,-0.0467
2038.00,-0.0468
2037.00,-0.0468
2036.00,-0.0468
2035.00,-0.0468
2034.00,-0.0468
2033.00,-0.0468
2032.00,-0.0468
2031.00,-0.0468
2030.00,-0.0468
2029.00,-0.0467
2028.00,-0.0467
2027.00,-0.0467
2026.00,-0.0467
2025.00,-0.0467
2024.00,-0.0467
2023.00,-0.0466
2022.00,-0.0466
2021.00,-0.0466
2020.00,-0.0466
2019.00,-0.0466
2018.00,-0.0465
2017.00,-0.0465
2016.00,-0.0465
2015.00,-0.0465
2014.00,-0.0465
2013.00,-0.0465
2012.00,-0.0464
2011.00,-0.0464
2010.00,-0.0464
2009.00,-0.0464
2008.00,-0.0464
2007.00,-0.0465
2006.00,-0.0465
2005.00,-0.0465
2004.00,-0.0465
2003.00,-0.0465
2002.00,-0.0466
2001.00,-0.0466
2000.00,-0.0466
1999.00,-0.0466
1998.00,-0.0467
1997.00,-0.0467
1996.00,-0.0467
1995.00,-0.0467
1994.00,-0.0468
1993.00,-0.0468
1992.00,-0.0468
1991.00,-0.0469
1990.00,-0.0469
1989.00,-0.0469
1988.00,-0.0469
1987.00,-0.0470
1986.00,-0.0470
1985.00,-0.0470
1984.00,-0.0470
1983.00,-0.0471
1982.00,-0.0471
1981.00,-0.0471
1980.00,-0.0471
1979.00,-0.0471
1978.00,-0.0471
1977.00,-0.0471
1976.00,-0.0471
1975.00,-0.0471
1974.00,-0.0471
1973.00,-0.0470
1972.00,-0.0470
1971.00,-0.0470
1970.00,-0.0470
1969.00,-0.0469
1968.00,-0.0469
1967.00,-0.0469
1966.00,-0.0469
1965.00,-0.0469
1964.00,-0.0468
1963.00,-0.0468
1962.00,-0.0468
1961.00,-0.0469
1960.00,-0.0469
1959.00,-0.0469
1958.00,-0.0469
1957.00,-0.0469
1956.00,-0.0469
1955.00,-0.0470
1954.00,-0.0470
1953.00,-0.0471
1952.00,-0.0471
1951.00,-0.0471
1950.00,-0.0472
1949.00,-0.0472
1948.00,-0.0472
1947.00,-0.0472
1946.00,-0.0473
1945.00,-0.0473
1944.00,-0.0473
1943.00,-0.0473
1942.00,-0.0473
1941.00,-0.0473
1940.00,-0.0473
1939.00,-0.0473
1938.00,-0.0472
1937.00,-0.0472
1936.00,-0.0472
1935.00,-0.0472
1934.00,-0.0471
1933.00,-0.0471
1932.00,-0.0471
1931.00,-0.0470
1930.00,-0.0470
1929.00,-0.0470
1928.00,-0.0470
1927.00,-0.0470
1926.00,-0.0469
1925.00,-0.0469
1924.00,-0.0469
1923.00,-0.0469
1922.00,-0.0469
1921.00,-0.0469
1920.00,-0.0469
1919.00,-0.0468
1918.00,-0.0468
1917.00,-0.0468
1916.00,-0.0468
1915.00,-0.0468
1914.00,-0.0468
1913.00,-0.0468
1912.00,-0.0468
1911.00,-0.0467
1910.00,-0.0467
1909.00,-0.0467
1908.00,-0.0467
1907.00,-0.0467
1906.00,-0.0467
1905.00,-0.0467
1904.00,-0.0467
1903.00,-0.0467
1902.00,-0.0467
1901.00,-0.0467
1900.00,-0.0467
1899.00,-0.0467
1898.00,-0.0467
1897.00,-0.0467
1896.00,-0.0467
1895.00,-0.0467
1894.00,-0.0468
1893.00,-0.0468
1892.00,-0.0468
1891.00,-0.0468
1890.00,-0.0468
1889.00,-0.0469
1888.00,-0.0469
1887.00,-0.0469
1886.00,-0.0469
1885.00,-0.0469
1884.00,-0.0470
1883.00,-0.0470
1882.00,-0.0470
1881.00,-0.0470
1880.00,-0.0471
1879.00,-0.0471
1878.00,-0.0471
1877.00,-0.0471
1876.00,-0.0471
1875.00,-0.0471
1874.00,-0.0471
1873.00,-0.0471
1872.00,-0.0471
1871.00,-0.0471
1870.00,-0.0471
1869.00,-0.0471
1868.00,-0.0471
1867.00,-0.0471
1866.00,-0.0470
1865.00,-0.0470
1864.00,-0.0470
1863.00,-0.0470
1862.00,-0.0470
1861.00,-0.0470
1860.00,-0.0470
1859.00,-0.0470
1858.00,-0.0470
1857.00,-0.0470
1856.00,-0.0470
1855.00,-0.0470
1854.00,-0.0471
1853.00,-0.0471
1852.00,-0.0471
1851.00,-0.0471
1850.00,-0.0471
1849.00,-0.0472
1848.00,-0.0472
1847.00,-0.0472
1846.00,-0.0472
1845.00,-0.0472
1844.00,-0.0473
1843.00,-0.0473
1842.00,-0.0473
1841.00,-0.0473
1840.00,-0.0473
1839.00,-0.0474
1838.00,-0.0474
1837.00,-0.0474
1836.00,-0.0474
1835.00,-0.0474
1834.00,-0.0474
1833.00,-0.0474
1832.00,-0.0474
1831.00,-0.0474
1830.00,-0.0474
1829.00,-0.0474
1828.00,-0.0474
1827.00,-0.0474
1826.00,-0.0474
1825.00,-0.0474
1824.00,-0.0474
1823.00,-0.0475
1822.00,-0.0475
1821.00,-0.0475
1820.00,-0.0475
1819.00,-0.0475
1818.00,-0.0475
1817.00,-0.0475
1816.00,-0.0475
1815.00,-0.0475
1814.00,-0.0475
1813.00,-0.0475
1812.00,-0.0475
1811.00,-0.0475
1810.00,-0.0475
1809.00,-0.0475
1808.00,-0.0475
1807.00,-0.0475
1806.00,-0.0475
1805.00,-0.0475
1804.00,-0.0475
1803.00,-0.0475
1802.00,-0.0476
1801.00,-0.0476
1800.00,-0.0476
1799.00,-0.0476
1798.00,-0.0476
1797.00,-0.0476
1796.00,-0.0476
1795.00,-0.0476
1794.00,-0.0476
1793.00,-0.0477
1792.00,-0.0477
1791.00,-0.0477
1790.00,-0.0477
1789.00,-0.0477
1788.00,-0.0477
1787.00,-0.0478
1786.00,-0.0478
1785.00,-0.0478
1784.00,-0.0478
1783.00,-0.0478
1782.00,-0.0479
1781.00,-0.0479
1780.00,-0.0479
1779.00,-0.0479
1778.00,-0.0479
1777.00,-0.0479
1776.00,-0.0479
1775.00,-0.0479
1774.00,-0.0479
1773.00,-0.0479
1772.00,-0.0479
1771.00,-0.0479
1770.00,-0.0479
1769.00,-0.0479
1768.00,-0.0479
1767.00,-0.0479
1766.00,-0.0479
1765.00,-0.0479
1764.00,-0.0479
1763.00,-0.0478
1762.00,-0.0478
1761.00,-0.0478
1760.00,-0.0478
1759.00,-0.0478
1758.00,-0.0478
1757.00,-0.0478
1756.00,-0.0478
1755.00,-0.0478
1754.00,-0.0478
1753.00,-0.0478
1752.00,-0.0478
1751.00,-0.0478
1750.00,-0.0478
1749.00,-0.0477
1748.00,-0.0477
1747.00,-0.0477
1746.00,-0.0477
1745.00,-0.0477
1744.00,-0.0477
1743.00,-0.0477
1742.00,-0.0477
1741.00,-0.0477
1740.00,-0.0478
1739.00,-0.0478
1738.00,-0.0478
1737.00,-0.0478
1736.00,-0.0478
1735.00,-0.0478
1734.00,-0.0478
1733.00,-0.0479
1732.00,-0.0479
1731.00,-0.0478
1730.00,-0.0478
1729.00,-0.0479
1728.00,-0.0479
1727.00,-0.0479
1726.00,-0.0479
1725.00,-0.0479
1724.00,-0.0479
1723.00,-0.0479
1722.00,-0.0480
1721.00,-0.0480
1720.00,-0.0480
1719.00,-0.0480
1718.00,-0.0480
1717.00,-0.0480
1716.00,-0.0480
1715.00,-0.0480
1714.00,-0.0480
1713.00,-0.0479
1712.00,-0.0479
1711.00,-0.0479
1710.00,-0.0479
1709.00,-0.0479
1708.00,-0.0479
1707.00,-0.0479
1706.00,-0.0479
1705.00,-0.0479
1704.00,-0.0478
1703.00,-0.0478
1702.00,-0.0478
1701.00,-0.0478
1700.00,-0.0477
1699.00,-0.0478
1698.00,-0.0478
1697.00,-0.0477
1696.00,-0.0477
1695.00,-0.0477
1694.00,-0.0478
1693.00,-0.0478
1692.00,-0.0477
1691.00,-0.0477
1690.00,-0.0478
1689.00,-0.0478
1688.00,-0.0478
1687.00,-0.0478
1686.00,-0.0478
1685.00,-0.0478
1684.00,-0.0478
1683.00,-0.0478
1682.00,-0.0478
1681.00,-0.0478
1680.00,-0.0478
1679.00,-0.0478
1678.00,-0.0478
1677.00,-0.0478
1676.00,-0.0478
1675.00,-0.0478
1674.00,-0.0478
1673.00,-0.0478
1672.00,-0.0478
1671.00,-0.0479
1670.00,-0.0478
1669.00,-0.0478
1668.00,-0.0478
1667.00,-0.0478
1666.00,-0.0478
1665.00,-0.0478
1664.00,-0.0478
1663.00,-0.0479
1662.00,-0.0478
1661.00,-0.0479
1660.00,-0.0479
1659.00,-0.0478
1658.00,-0.0478
1657.00,-0.0478
1656.00,-0.0477
1655.00,-0.0477
1654.00,-0.0476
1653.00,-0.0476
1652.00,-0.0477
1651.00,-0.0477
1650.00,-0.0477
1649.00,-0.0477
1648.00,-0.0477
1647.00,-0.0477
1646.00,-0.0477
1645.00,-0.0477
1644.00,-0.0477
1643.00,-0.0477
1642.00,-0.0477
1641.00,-0.0477
1640.00,-0.0477
1639.00,-0.0477
1638.00,-0.0477
1637.00,-0.0477
1636.00,-0.0477
1635.00,-0.0477
1634.00,-0.0477
1633.00,-0.0477
1632.00,-0.0477
1631.00,-0.0477
1630.00,-0.0478
1629.00,-0.0478
1628.00,-0.0478
1627.00,-0.0478
1626.00,-0.0478
1625.00,-0.0478
1624.00,-0.0478
1623.00,-0.0478
1622.00,-0.0478
1621.00,-0.0478
1620.00,-0.0478
1619.00,-0.0478
1618.00,-0.0478
1617.00,-0.0478
1616.00,-0.0479
1615.00,-0.0479
1614.00,-0.0479
1613.00,-0.0478
1612.00,-0.0478
1611.00,-0.0479
1610.00,-0.0479
1609.00,-0.0478
1608.00,-0.0479
1607.00,-0.0479
1606.00,-0.0479
1605.00,-0.0478
1604.00,-0.0478
1603.00,-0.0478
1602.00,-0.0478
1601.00,-0.0478
1600.00,-0.0478
1599.00,-0.0478
1598.00,-0.0478
1597.00,-0.0478
1596.00,-0.0478
1595.00,-0.0477
1594.00,-0.0477
1593.00,-0.0477
1592.00,-0.0477
1591.00,-0.0477
1590.00,-0.0477
1589.00,-0.0477
1588.00,-0.0477
1587.00,-0.0477
1586.00,-0.0477
1585.00,-0.0477
1584.00,-0.0477
1583.00,-0.0477
1582.00,-0.0477
1581.00,-0.0477
1580.00,-0.0477
1579.00,-0.0477
1578.00,-0.0477
1577.00,-0.0477
1576.00,-0.0478
1575.00,-0.0478
1574.00,-0.0478
1573.00,-0.0478
1572.00,-0.0479
1571.00,-0.0479
1570.00,-0.0479
1569.00,-0.0479
1568.00,-0.0479
1567.00,-0.0479
1566.00,-0.0479
1565.00,-0.0479
1564.00,-0.0480
1563.00,-0.0479
1562.00,-0.0479
1561.00,-0.0479
1560.00,-0.0480
1559.00,-0.0479
1558.00,-0.0479
1557.00,-0.0479
1556.00,-0.0479
1555.00,-0.0479
1554.00,-0.0479
1553.00,-0.0479
1552.00,-0.0479
1551.00,-0.0479
1550.00,-0.0479
1549.00,-0.0479
1548.00,-0.0479
1547.00,-0.0479
1546.00,-0.0479
1545.00,-0.0479
1544.00,-0.0479
1543.00,-0.0479
1542.00,-0.0478
1541.00,-0.0478
1540.00,-0.0479
1539.00,-0.0479
1538.00,-0.0479
1537.00,-0.0478
1536.00,-0.0478
1535.00,-0.0478
1534.00,-0.0478
1533.00,-0.0478
1532.00,-0.0478
1531.00,-0.0478
1530.00,-0.0478
1529.00,-0.0478
1528.00,-0.0478
1527.00,-0.0478
1526.00,-0.0478
1525.00,-0.0478
1524.00,-0.0478
1523.00,-0.0478
1522.00,-0.0478
1521.00,-0.0478
1520.00,-0.0478
1519.00,-0.0478
1518.00,-0.0478
1517.00,-0.0479
1516.00,-0.0479
1515.00,-0.0479
1514.00,-0.0479
1513.00,-0.0479
1512.00,-0.0479
1511.00,-0.0479
1510.00,-0.0479
1509.00,-0.0479
1508.00,-0.0479
1507.00,-0.0479
1506.00,-0.0479
1505.00,-0.0479
1504.00,-0.0479
1503.00,-0.0479
1502.00,-0.0479
1501.00,-0.0479
1500.00,-0.0479
1499.00,-0.0478
1498.00,-0.0478
1497.00,-0.0477
1496.00,-0.0477
1495.00,-0.0477
1494.00,-0.0477
1493.00,-0.0477
1492.00,-0.0477
1491.00,-0.0477
1490.00,-0.0477
1489.00,-0.0477
1488.00,-0.0477
1487.00,-0.0477
1486.00,-0.0477
1485.00,-0.0477
1484.00,-0.0477
1483.00,-0.0477
1482.00,-0.0478
1481.00,-0.0478
1480.00,-0.0478
1479.00,-0.0478
1478.00,-0.0478
1477.00,-0.0478
1476.00,-0.0478
1475.00,-0.0479
1474.00,-0.0479
1473.00,-0.0479
1472.00,-0.0479
1471.00,-0.0479
1470.00,-0.0479
1469.00,-0.0479
1468.00,-0.0479
1467.00,-0.0479
1466.00,-0.0479
1465.00,-0.0480
1464.00,-0.0480
1463.00,-0.0480
1462.00,-0.0480
1461.00,-0.0480
1460.00,-0.0480
1459.00,-0.0480
1458.00,-0.0480
1457.00,-0.0480
1456.00,-0.0479
1455.00,-0.0479
1454.00,-0.0479
1453.00,-0.0479
1452.00,-0.0479
1451.00,-0.0479
1450.00,-0.0479
1449.00,-0.0480
1448.00,-0.0479
1447.00,-0.0479
1446.00,-0.0479
1445.00,-0.0479
1444.00,-0.0479
1443.00,-0.0479
1442.00,-0.0479
1441.00,-0.0479
1440.00,-0.0479
1439.00,-0.0478
1438.00,-0.0478
1437.00,-0.0478
1436.00,-0.0478
1435.00,-0.0478
1434.00,-0.0477
1433.00,-0.0478
1432.00,-0.0478
1431.00,-0.0477
1430.00,-0.0477
1429.00,-0.0477
1428.00,-0.0477
1427.00,-0.0478
1426.00,-0.0478
1425.00,-0.0478
1424.00,-0.0478
1423.00,-0.0478
1422.00,-0.0478
1421.00,-0.0478
1420.00,-0.0478
1419.00,-0.0478
1418.00,-0.0478
1417.00,-0.0478
1416.00,-0.0478
1415.00,-0.0478
1414.00,-0.0479
1413.00,-0.0479
1412.00,-0.0479
1411.00,-0.0479
1410.00,-0.0479
1409.00,-0.0479
1408.00,-0.0479
1407.00,-0.0479
1406.00,-0.0479
1405.00,-0.0479
1404.00,-0.0479
1403.00,-0.0479
1402.00,-0.0479
1401.00,-0.0479
1400.00,-0.0479
1399.00,-0.0479
1398.00,-0.0479
1397.00,-0.0479
1396.00,-0.0479
1395.00,-0.0479
1394.00,-0.0479
1393.00,-0.0479
1392.00,-0.0479
1391.00,-0.0479
1390.00,-0.0479
1389.00,-0.0479
1388.00,-0.0479
1387.00,-0.0479
1386.00,-0.0479
1385.00,-0.0479
1384.00,-0.0479
1383.00,-0.0479
1382.00,-0.0479
1381.00,-0.0478
1380.00,-0.0478
1379.00,-0.0478
1378.00,-0.0478
1377.00,-0.0478
1376.00,-0.0478
1375.00,-0.0478
1374.00,-0.0478
1373.00,-0.0478
1372.00,-0.0478
1371.00,-0.0478
1370.00,-0.0478
1369.00,-0.0478
1368.00,-0.0478
1367.00,-0.0478
1366.00,-0.0478
1365.00,-0.0478
1364.00,-0.0478
1363.00,-0.0478
1362.00,-0.0478
1361.00,-0.0478
1360.00,-0.0479
1359.00,-0.0479
1358.00,-0.0479
1357.00,-0.0479
1356.00,-0.0479
1355.00,-0.0479
1354.00,-0.0479
1353.00,-0.0479
1352.00,-0.0479
1351.00,-0.0479
1350.00,-0.0479
1349.00,-0.0479
1348.00,-0.0479
1347.00,-0.0479
1346.00,-0.0479
1345.00,-0.0479
1344.00,-0.0479
1343.00,-0.0479
1342.00,-0.0479
1341.00,-0.0479
1340.00,-0.0479
1339.00,-0.0479
1338.00,-0.0479
1337.00,-0.0479
1336.00,-0.0479
1335.00,-0.0479
1334.00,-0.0479
1333.00,-0.0479
1332.00,-0.0478
1331.00,-0.0478
1330.00,-0.0478
1329.00,-0.0478
1328.00,-0.0478
1327.00,-0.0478
1326.00,-0.0478
1325.00,-0.0478
1324.00,-0.0478
1323.00,-0.0478
1322.00,-0.0478
1321.00,-0.0478
1320.00,-0.0478
1319.00,-0.0478
1318.00,-0.0478
1317.00,-0.0478
1316.00,-0.0478
1315.00,-0.0478
1314.00,-0.0478
1313.00,-0.0478
1312.00,-0.0478
1311.00,-0.0478
1310.00,-0.0478
1309.00,-0.0479
1308.00,-0.0479
1307.00,-0.0479
1306.00,-0.0479
1305.00,-0.0479
1304.00,-0.0479
1303.00,-0.0479
1302.00,-0.0479
1301.00,-0.0479
1300.00,-0.0479
1299.00,-0.0479
1298.00,-0.0479
1297.00,-0.0479
1296.00,-0.0479
1295.00,-0.0479
1294.00,-0.0479
1293.00,-0.0479
1292.00,-0.0479
1291.00,-0.0479
1290.00,-0.0479
1289.00,-0.0479
1288.00,-0.0478
1287.00,-0.0478
1286.00,-0.0478
1285.00,-0.0478
1284.00,-0.0478
1283.00,-0.0478
1282.00,-0.0478
1281.00,-0.0477
1280.00,-0.0477
1279.00,-0.0477
1278.00,-0.0477
1277.00,-0.0476
1276.00,-0.0476
1275.00,-0.0476
1274.00,-0.0476
1273.00,-0.0476
1272.00,-0.0476
1271.00,-0.0476
1270.00,-0.0476
1269.00,-0.0476
1268.00,-0.0476
1267.00,-0.0476
1266.00,-0.0476
1265.00,-0.0476
1264.00,-0.0476
1263.00,-0.0476
1262.00,-0.0476
1261.00,-0.0476
1260.00,-0.0476
1259.00,-0.0476
1258.00,-0.0476
1257.00,-0.0476
1256.00,-0.0476
1255.00,-0.0477
1254.00,-0.0477
1253.00,-0.0477
1252.00,-0.0477
1251.00,-0.0477
1250.00,-0.0477
1249.00,-0.0478
1248.00,-0.0478
1247.00,-0.0478
1246.00,-0.0478
1245.00,-0.0478
1244.00,-0.0478
1243.00,-0.0478
1242.00,-0.0478
1241.00,-0.0478
1240.00,-0.0478
1239.00,-0.0478
1238.00,-0.0478
1237.00,-0.0478
1236.00,-0.0478
1235.00,-0.0478
1234.00,-0.0477
1233.00,-0.0477
1232.00,-0.0477
1231.00,-0.0477
1230.00,-0.0477
1229.00,-0.0477
1228.00,-0.0477
1227.00,-0.0476
1226.00,-0.0476
1225.00,-0.0476
1224.00,-0.0476
1223.00,-0.0476
1222.00,-0.0476
1221.00,-0.0475
1220.00,-0.0475
1219.00,-0.0475
1218.00,-0.0475
1217.00,-0.0475
1216.00,-0.0474
1215.00,-0.0474
1214.00,-0.0474
1213.00,-0.0474
1212.00,-0.0474
1211.00,-0.0474
1210.00,-0.0474
1209.00,-0.0474
1208.00,-0.0474
1207.00,-0.0474
1206.00,-0.0474
1205.00,-0.0474
1204.00,-0.0475
1203.00,-0.0475
1202.00,-0.0475
1201.00,-0.0475
1200.00,-0.0475
1199.00,-0.0475
1198.00,-0.0475
1197.00,-0.0475
1196.00,-0.0475
1195.00,-0.0475
1194.00,-0.0475
1193.00,-0.0475
1192.00,-0.0475
1191.00,-0.0475
1190.00,-0.0475
1189.00,-0.0475
1188.00,-0.0475
1187.00,-0.0475
1186.00,-0.0475
1185.00,-0.0475
1184.00,-0.0475
1183.00,-0.0475
1182.00,-0.0475
1181.00,-0.0475
1180.00,-0.0475
1179.00,-0.0475
1178.00,-0.0475
1177.00,-0.0475
1176.00,-0.0474
1175.00,-0.0474
1174.00,-0.0474
1173.00,-0.0474
1172.00,-0.0474
1171.00,-0.0474
1170.00,-0.0474
1169.00,-0.0474
1168.00,-0.0473
1167.00,-0.0473
1166.00,-0.0473
1165.00,-0.0473
1164.00,-0.0473
1163.00,-0.0473
1162.00,-0.0473
1161.00,-0.0473
1160.00,-0.0473
1159.00,-0.0473
1158.00,-0.0473
1157.00,-0.0473
1156.00,-0.0473
1155.00,-0.0473
1154.00,-0.0473
1153.00,-0.0473
1152.00,-0.0473
1151.00,-0.0473
1150.00,-0.0473
1149.00,-0.0473
1148.00,-0.0473
1147.00,-0.0473
1146.00,-0.0473
1145.00,-0.0474
1144.00,-0.0474
1143.00,-0.0474
1142.00,-0.0474
1141.00,-0.0474
1140.00,-0.0474
1139.00,-0.0474
1138.00,-0.0474
1137.00,-0.0474
1136.00,-0.0474
1135.00,-0.0474
1134.00,-0.0474
1133.00,-0.0474
1132.00,-0.0474
1131.00,-0.0474
1130.00,-0.0474
1129.00,-0.0474
1128.00,-0.0474
1127.00,-0.0474
1126.00,-0.0474
1125.00,-0.0474
1124.00,-0.0473
1123.00,-0.0473
1122.00,-0.0473
1121.00,-0.0473
1120.00,-0.0473
1119.00,-0.0473
1118.00,-0.0473
1117.00,-0.0473
1116.00,-0.0473
1115.00,-0.0473
1114.00,-0.0473
1113.00,-0.0472
1112.00,-0.0472
1111.00,-0.0472
1110.00,-0.0472
1109.00,-0.0472
1108.00,-0.0472
1107.00,-0.0472
1106.00,-0.0472
1105.00,-0.0472
1104.00,-0.0472
1103.00,-0.0472
1102.00,-0.0472
1101.00,-0.0473
1100.00,-0.0473
1099.00,-0.0473
1098.00,-0.0473
1097.00,-0.0473
1096.00,-0.0473
1095.00,-0.0473
1094.00,-0.0473
1093.00,-0.0473
1092.00,-0.0473
1091.00,-0.0474
1090.00,-0.0474
1089.00,-0.0474
1088.00,-0.0474
1087.00,-0.0474
1086.00,-0.0473
1085.00,-0.0474
1084.00,-0.0474
1083.00,-0.0474
1082.00,-0.0474
1081.00,-0.0474
1080.00,-0.0474
1079.00,-0.0474
1078.00,-0.0474
1077.00,-0.0474
1076.00,-0.0474
1075.00,-0.0474
1074.00,-0.0474
1073.00,-0.0474
1072.00,-0.0473
1071.00,-0.0473
1070.00,-0.0473
1069.00,-0.0473
1068.00,-0.0473
1067.00,-0.0473
1066.00,-0.0473
1065.00,-0.0473
1064.00,-0.0473
1063.00,-0.0473
1062.00,-0.0473
1061.00,-0.0473
1060.00,-0.0473
1059.00,-0.0472
1058.00,-0.0472
1057.00,-0.0472
1056.00,-0.0473
1055.00,-0.0473
1054.00,-0.0472
1053.00,-0.0472
1052.00,-0.0472
1051.00,-0.0472
1050.00,-0.0472
1049.00,-0.0472
1048.00,-0.0472
1047.00,-0.0473
1046.00,-0.0473
1045.00,-0.0473
1044.00,-0.0474
1043.00,-0.0474
1042.00,-0.0474
1041.00,-0.0474
1040.00,-0.0475
1039.00,-0.0475
1038.00,-0.0475
1037.00,-0.0475
1036.00,-0.0475
1035.00,-0.0476
1034.00,-0.0476
1033.00,-0.0476
1032.00,-0.0476
1031.00,-0.0476
1030.00,-0.0476
1029.00,-0.0476
1028.00,-0.0476
1027.00,-0.0477
1026.00,-0.0477
1025.00,-0.0477
1024.00,-0.0477
1023.00,-0.0477
1022.00,-0.0477
1021.00,-0.0477
1020.00,-0.0477
1019.00,-0.0477
1018.00,-0.0477
1017.00,-0.0477
1016.00,-0.0477
1015.00,-0.0477
1014.00,-0.0477
1013.00,-0.0477
1012.00,-0.0477
1011.00,-0.0477
1010.00,-0.0477
1009.00,-0.0478
1008.00,-0.0478
1007.00,-0.0478
1006.00,-0.0478
1005.00,-0.0478
1004.00,-0.0478
1003.00,-0.0478
1002.00,-0.0478
1001.00,-0.0478
1000.00,-0.0479
999.00,-0.0479
998.00,-0.0479
997.00,-0.0479
996.00,-0.0479
995.00,-0.0479
994.00,-0.0479
993.00,-0.0479
992.00,-0.0479
991.00,-0.0480
990.00,-0.0480
989.00,-0.0480
988.00,-0.0480
987.00,-0.0481
986.00,-0.0481
985.00,-0.0481
984.00,-0.0481
983.00,-0.0481
982.00,-0.0481
981.00,-0.0482
980.00,-0.0482
979.00,-0.0482
978.00,-0.0482
977.00,-0.0482
976.00,-0.0482
975.00,-0.0482
974.00,-0.0483
973.00,-0.0483
972.00,-0.0483
971.00,-0.0483
970.00,-0.0482
969.00,-0.0483
968.00,-0.0483
967.00,-0.0483
966.00,-0.0483
965.00,-0.0483
964.00,-0.0483
963.00,-0.0483
962.00,-0.0482
961.00,-0.0482
960.00,-0.0482
959.00,-0.0482
958.00,-0.0482
957.00,-0.0482
956.00,-0.0482
955.00,-0.0483
954.00,-0.0483
953.00,-0.0483
952.00,-0.0483
951.00,-0.0483
950.00,-0.0483
949.00,-0.0483
948.00,-0.0483
947.00,-0.0483
946.00,-0.0483
945.00,-0.0483
944.00,-0.0483
943.00,-0.0483
942.00,-0.0483
941.00,-0.0483
940.00,-0.0484
939.00,-0.0484
938.00,-0.0484
937.00,-0.0484
936.00,-0.0484
935.00,-0.0484
934.00,-0.0484
933.00,-0.0484
932.00,-0.0484
931.00,-0.0485
930.00,-0.0485
929.00,-0.0485
928.00,-0.0485
927.00,-0.0485
926.00,-0.0485
925.00,-0.0485
924.00,-0.0485
923.00,-0.0485
922.00,-0.0485
921.00,-0.0485
920.00,-0.0485
919.00,-0.0485
918.00,-0.0485
917.00,-0.0485
916.00,-0.0485
915.00,-0.0485
914.00,-0.0485
913.00,-0.0485
912.00,-0.0485
911.00,-0.0485
910.00,-0.0485
909.00,-0.0484
908.00,-0.0484
907.00,-0.0484
906.00,-0.0484
905.00,-0.0484
904.00,-0.0484
903.00,-0.0484
902.00,-0.0484
901.00,-0.0483
900.00,-0.0483
899.00,-0.0483
898.00,-0.0483
897.00,-0.0483
896.00,-0.0483
895.00,-0.0484
894.00,-0.0484
893.00,-0.0484
892.00,-0.0484
891.00,-0.0483
890.00,-0.0483
889.00,-0.0483
888.00,-0.0483
887.00,-0.0484
886.00,-0.0484
885.00,-0.0484
884.00,-0.0484
883.00,-0.0483
882.00,-0.0483
881.00,-0.0483
880.00,-0.0484
879.00,-0.0484
878.00,-0.0484
877.00,-0.0484
876.00,-0.0484
875.00,-0.0484
874.00,-0.0484
873.00,-0.0484
872.00,-0.0484
871.00,-0.0484
870.00,-0.0484
869.00,-0.0484
868.00,-0.0484
867.00,-0.0484
866.00,-0.0484
865.00,-0.0484
864.00,-0.0484
863.00,-0.0484
862.00,-0.0484
861.00,-0.0484
860.00,-0.0484
859.00,-0.0484
858.00,-0.0484
857.00,-0.0484
856.00,-0.0484
855.00,-0.0484
854.00,-0.0483
853.00,-0.0484
852.00,-0.0484
851.00,-0.0484
850.00,-0.0483
849.00,-0.0483
848.00,-0.0483
847.00,-0.0483
846.00,-0.0483
845.00,-0.0483
844.00,-0.0483
843.00,-0.0483
842.00,-0.0483
841.00,-0.0483
840.00,-0.0483
839.00,-0.0483
838.00,-0.0483
837.00,-0.0483
836.00,-0.0483
835.00,-0.0483
834.00,-0.0482
833.00,-0.0482
832.00,-0.0482
831.00,-0.0482
830.00,-0.0482
829.00,-0.0482
828.00,-0.0482
827.00,-0.0481
826.00,-0.0481
825.00,-0.0481
824.00,-0.0481
823.00,-0.0481
822.00,-0.0482
821.00,-0.0482
820.00,-0.0482
819.00,-0.0482
818.00,-0.0482
817.00,-0.0482
816.00,-0.0483
815.00,-0.0483
814.00,-0.0483
813.00,-0.0483
812.00,-0.0483
811.00,-0.0483
810.00,-0.0483
809.00,-0.0482
808.00,-0.0482
807.00,-0.0482
806.00,-0.0483
805.00,-0.0483
804.00,-0.0483
803.00,-0.0483
802.00,-0.0483
801.00,-0.0483
800.00,-0.0483
799.00,-0.0483
798.00,-0.0483
797.00,-0.0483
796.00,-0.0483
795.00,-0.0483
794.00,-0.0483
793.00,-0.0484
792.00,-0.0484
791.00,-0.0483
790.00,-0.0483
789.00,-0.0483
788.00,-0.0483
787.00,-0.0483
786.00,-0.0483
785.00,-0.0483
784.00,-0.0483
783.00,-0.0483
782.00,-0.0483
781.00,-0.0483
780.00,-0.0483
779.00,-0.0483
778.00,-0.0483
777.00,-0.0484
776.00,-0.0484
775.00,-0.0484
774.00,-0.0484
773.00,-0.0484
772.00,-0.0484
771.00,-0.0484
770.00,-0.0484
769.00,-0.0484
768.00,-0.0484
767.00,-0.0484
766.00,-0.0484
765.00,-0.0484
764.00,-0.0484
763.00,-0.0484
762.00,-0.0484
761.00,-0.0484
760.00,-0.0484
759.00,-0.0484
758.00,-0.0484
757.00,-0.0483
756.00,-0.0483
755.00,-0.0483
754.00,-0.0483
753.00,-0.0483
752.00,-0.0483
751.00,-0.0483
750.00,-0.0483
749.00,-0.0483
748.00,-0.0482
747.00,-0.0482
746.00,-0.0482
745.00,-0.0482
744.00,-0.0482
743.00,-0.0482
742.00,-0.0482
741.00,-0.0482
740.00,-0.0482
739.00,-0.0482
738.00,-0.0482
737.00,-0.0482
736.00,-0.0482
735.00,-0.0482
734.00,-0.0481
733.00,-0.0482
732.00,-0.0482
731.00,-0.0482
730.00,-0.0482
729.00,-0.0482
728.00,-0.0481
727.00,-0.0481
726.00,-0.0481
725.00,-0.0482
724.00,-0.0482
723.00,-0.0482
722.00,-0.0483
721.00,-0.0483
720.00,-0.0483
719.00,-0.0482
718.00,-0.0482
717.00,-0.0482
716.00,-0.0483
715.00,-0.0483
714.00,-0.0483
713.00,-0.0482
712.00,-0.0482
711.00,-0.0482
710.00,-0.0482
709.00,-0.0482
708.00,-0.0482
707.00,-0.0482
706.00,-0.0482
705.00,-0.0482
704.00,-0.0482
703.00,-0.0482
702.00,-0.0482
701.00,-0.0482
700.00,-0.0482
699.00,-0.0481
698.00,-0.0481
697.00,-0.0481
696.00,-0.0481
695.00,-0.0480
694.00,-0.0480
693.00,-0.0480
692.00,-0.0480
691.00,-0.0480
690.00,-0.0480
689.00,-0.0480
688.00,-0.0480
687.00,-0.0479
686.00,-0.0479
685.00,-0.0479
684.00,-0.0479
683.00,-0.0479
682.00,-0.0479
681.00,-0.0479
680.00,-0.0479
679.00,-0.0479
678.00,-0.0479
677.00,-0.0479
676.00,-0.0479
675.00,-0.0480
674.00,-0.0479
673.00,-0.0479
672.00,-0.0479
671.00,-0.0478
670.00,-0.0477
669.00,-0.0476
668.00,-0.0475
667.00,-0.0475
666.00,-0.0475
665.00,-0.0477
664.00,-0.0479
663.00,-0.0479
662.00,-0.0479
661.00,-0.0479
660.00,-0.0479
659.00,-0.0479
658.00,-0.0479
657.00,-0.0479
656.00,-0.0479
655.00,-0.0479
654.00,-0.0479
653.00,-0.0479
652.00,-0.0479
651.00,-0.0479
650.00,-0.0479
649.00,-0.0479
648.00,-0.0479
647.00,-0.0479
646.00,-0.0478
645.00,-0.0478
644.00,-0.0478
643.00,-0.0478
642.00,-0.0478
641.00,-0.0478
640.00,-0.0478
639.00,-0.0478
638.00,-0.0478
637.00,-0.0478
636.00,-0.0478
635.00,-0.0478
634.00,-0.0477
633.00,-0.0477
632.00,-0.0477
631.00,-0.0477
630.00,-0.0477
629.00,-0.0477
628.00,-0.0477
627.00,-0.0477
626.00,-0.0477
625.00,-0.0477
624.00,-0.0477
623.00,-0.0477
622.00,-0.0477
621.00,-0.0477
620.00,-0.0477
619.00,-0.0478
618.00,-0.0478
617.00,-0.0478
616.00,-0.0478
615.00,-0.0478
614.00,-0.0477
613.00,-0.0477
612.00,-0.0478
611.00,-0.0478
610.00,-0.0478
609.00,-0.0477
608.00,-0.0477
607.00,-0.0477
606.00,-0.0477
605.00,-0.0477
604.00,-0.0477
603.00,-0.0477
602.00,-0.0477
601.00,-0.0477
600.00,-0.0477
599.00,-0.0478
598.00,-0.0478
597.00,-0.0478
596.00,-0.0478
595.00,-0.0478
594.00,-0.0478
593.00,-0.0478
592.00,-0.0478
591.00,-0.0477
590.00,-0.0477
589.00,-0.0477
588.00,-0.0477
587.00,-0.0477
586.00,-0.0476
585.00,-0.0476
584.00,-0.0476
583.00,-0.0476
582.00,-0.0477
581.00,-0.0477
580.00,-0.0477
579.00,-0.0478
578.00,-0.0478
577.00,-0.0478
576.00,-0.0478
575.00,-0.0478
574.00,-0.0478
573.00,-0.0478
572.00,-0.0478
571.00,-0.0478
570.00,-0.0478
569.00,-0.0478
568.00,-0.0478
567.00,-0.0478
566.00,-0.0479
565.00,-0.0479
564.00,-0.0479
563.00,-0.0479
562.00,-0.0479
561.00,-0.0478
560.00,-0.0479
559.00,-0.0478
558.00,-0.0478
557.00,-0.0478
556.00,-0.0479
555.00,-0.0479
554.00,-0.0480
553.00,-0.0480
552.00,-0.0481
551.00,-0.0481
550.00,-0.0481
549.00,-0.0481
548.00,-0.0481
547.00,-0.0481
546.00,-0.0481
545.00,-0.0481
544.00,-0.0480
543.00,-0.0480
542.00,-0.0480
541.00,-0.0480
540.00,-0.0481
539.00,-0.0481
538.00,-0.0481
537.00,-0.0481
536.00,-0.0481
535.00,-0.0482
534.00,-0.0483
533.00,-0.0483
532.00,-0.0483
531.00,-0.0483
530.00,-0.0483
529.00,-0.0483
528.00,-0.0483
527.00,-0.0484
526.00,-0.0484
525.00,-0.0484
524.00,-0.0484
523.00,-0.0485
522.00,-0.0485
521.00,-0.0486
520.00,-0.0485
519.00,-0.0485
518.00,-0.0485
517.00,-0.0485
516.00,-0.0485
515.00,-0.0486
514.00,-0.0485
513.00,-0.0485
512.00,-0.0485
511.00,-0.0485
510.00,-0.0485
509.00,-0.0485
508.00,-0.0485
507.00,-0.0485
506.00,-0.0485
505.00,-0.0485
504.00,-0.0485
503.00,-0.0485
502.00,-0.0484
501.00,-0.0484
500.00,-0.0483
