Created as New Dataset,Sample 014 By Analyst Date Friday, March 28 2025
cm-1,A
4000.00,-0.0006
3999.00,-0.0006
3998.00,-0.0006
3997.00,-0.0006
3996.00,-0.0006
3995.00,-0.0006
3994.00,-0.0006
3993.00,-0.0006
3992.00,-0.0006
3991.00,-0.0006
3990.00,-0.0006
3989.00,-0.0006
3988.00,-0.0006
3987.00,-0.0006
3986.00,-0.0006
3985.00,-0.0006
3984.00,-0.0006
3983.00,-0.0006
3982.00,-0.0006
3981.00,-0.0006
3980.00,-0.0006
3979.00,-0.0006
3978.00,-0.0006
3977.00,-0.0006
3976.00,-0.0006
3975.00,-0.0006
3974.00,-0.0006
3973.00,-0.0005
3972.00,-0.0005
3971.00,-0.0005
3970.00,-0.0005
3969.00,-0.0005
3968.00,-0.0005
3967.00,-0.0005
3966.00,-0.0005
3965.00,-0.0005
3964.00,-0.0005
3963.00,-0.0005
3962.00,-0.0005
3961.00,-0.0005
3960.00,-0.0005
3959.00,-0.0005
3958.00,-0.0005
3957.00,-0.0005
3956.00,-0.0005
3955.00,-0.0005
3954.00,-0.0005
3953.00,-0.0006
3952.00,-0.0006
3951.00,-0.0006
3950.00,-0.0006
3949.00,-0.0006
3948.00,-0.0005
3947.00,-0.0005
3946.00,-0.0005
3945.00,-0.0005
3944.00,-0.0006
3943.00,-0.0006
3942.00,-0.0006
3941.00,-0.0005
3940.00,-0.0005
3939.00,-0.0005
3938.00,-0.0005
3937.00,-0.0005
3936.00,-0.0005
3935.00,-0.0005
3934.00,-0.0005
3933.00,-0.0005
3932.00,-0.0005
3931.00,-0.0005
3930.00,-0.0005
3929.00,-0.0005
3928.00,-0.0005
3927.00,-0.0005
3926.00,-0.0006
3925.00,-0.0006
3924.00,-0.0005
3923.00,-0.0005
3922.00,-0.0005
3921.00,-0.0005
3920.00,-0.0006
3919.00,-0.0006
3918.00,-0.0006
3917.00,-0.0006
3916.00,-0.0005
3915.00,-0.0005
3914.00,-0.0005
3913.00,-0.0005
3912.00,-0.0005
3911.00,-0.0004
3910.00,-0.0004
3909.00,-0.0004
3908.00,-0.0004
3907.00,-0.0005
3906.00,-0.0005
3905.00,-0.0005
3904.00,-0.0006
3903.00,-0.0007
3902.00,-0.0007
3901.00,-0.0007
3900.00,-0.0007
3899.00,-0.0006
3898.00,-0.0006
3897.00,-0.0006
3896.00,-0.0006
3895.00,-0.0005
3894.00,-0.0005
3893.00,-0.0005
3892.00,-0.0005
3891.00,-0.0004
3890.00,-0.0004
3889.00,-0.0005
3888.00,-0.0005
3887.00,-0.0006
3886.00,-0.0006
3885.00,-0.0006
3884.00,-0.0005
3883.00,-0.0005
3882.00,-0.0006
3881.00,-0.0006
3880.00,-0.0005
3879.00,-0.0005
3878.00,-0.0005
3877.00,-0.0005
3876.00,-0.0005
3875.00,-0.0005
3874.00,-0.0005
3873.00,-0.0005
3872.00,-0.0005
3871.00,-0.0005
3870.00,-0.0006
3869.00,-0.0005
3868.00,-0.0005
3867.00,-0.0006
3866.00,-0.0006
3865.00,-0.0006
3864.00,-0.0006
3863.00,-0.0005
3862.00,-0.0005
3861.00,-0.0005
3860.00,-0.0005
3859.00,-0.0005
3858.00,-0.0004
3857.00,-0.0004
3856.00,-0.0004
3855.00,-0.0004
3854.00,-0.0005
3853.00,-0.0005
3852.00,-0.0005
3851.00,-0.0005
3850.00,-0.0006
3849.00,-0.0006
3848.00,-0.0005
3847.00,-0.0005
3846.00,-0.0005
3845.00,-0.0005
3844.00,-0.0005
3843.00,-0.0005
3842.00,-0.0005
3841.00,-0.0005
3840.00,-0.0005
3839.00,-0.0006
3838.00,-0.0006
3837.00,-0.0006
3836.00,-0.0005
3835.00,-0.0005
3834.00,-0.0005
3833.00,-0.0005
3832.00,-0.0005
3831.00,-0.0005
3830.00,-0.0004
3829.00,-0.0005
3828.00,-0.0005
3827.00,-0.0005
3826.00,-0.0005
3825.00,-0.0005
3824.00,-0.0005
3823.00,-0.0006
3822.00,-0.0006
3821.00,-0.0005
3820.00,-0.0005
3819.00,-0.0005
3818.00,-0.0005
3817.00,-0.0005
3816.00,-0.0005
3815.00,-0.0004
3814.00,-0.0004
3813.00,-0.0004
3812.00,-0.0004
3811.00,-0.0004
3810.00,-0.0004
3809.00,-0.0004
3808.00,-0.0004
3807.00,-0.0004
3806.00,-0.0004
3805.00,-0.0004
3804.00,-0.0005
3803.00,-0.0005
3802.00,-0.0005
3801.00,-0.0005
3800.00,-0.0004
3799.00,-0.0005
3798.00,-0.0005
3797.00,-0.0005
3796.00,-0.0004
3795.00,-0.0004
3794.00,-0.0003
3793.00,-0.0003
3792.00,-0.0003
3791.00,-0.0003
3790.00,-0.0002
3789.00,-0.0002
3788.00,-0.0003
3787.00,-0.0003
3786.00,-0.0003
3785.00,-0.0003
3784.00,-0.0003
3783.00,-0.0003
3782.00,-0.0003
3781.00,-0.0003
3780.00,-0.0003
3779.00,-0.0003
3778.00,-0.0003
3777.00,-0.0003
3776.00,-0.0003
3775.00,-0.0003
3774.00,-0.0003
3773.00,-0.0003
3772.00,-0.0004
3771.00,-0.0004
3770.00,-0.0004
3769.00,-0.0004
3768.00,-0.0004
3767.00,-0.0004
3766.00,-0.0004
3765.00,-0.0004
3764.00,-0.0004
3763.00,-0.0004
3762.00,-0.0004
3761.00,-0.0004
3760.00,-0.0004
3759.00,-0.0004
3758.00,-0.0004
3757.00,-0.0004
3756.00,-0.0004
3755.00,-0.0004
3754.00,-0.0004
3753.00,-0.0004
3752.00,-0.0005
3751.00,-0.0005
3750.00,-0.0005
3749.00,-0.0006
3748.00,-0.0006
3747.00,-0.0006
3746.00,-0.0006
3745.00,-0.0006
3744.00,-0.0005
3743.00,-0.0004
3742.00,-0.0004
3741.00,-0.0005
3740.00,-0.0006
3739.00,-0.0006
3738.00,-0.0006
3737.00,-0.0007
3736.00,-0.0007
3735.00,-0.0006
3734.00,-0.0007
3733.00,-0.0007
3732.00,-0.0006
3731.00,-0.0005
3730.00,-0.0005
3729.00,-0.0005
3728.00,-0.0004
3727.00,-0.0004
3726.00,-0.0004
3725.00,-0.0004
3724.00,-0.0004
3723.00,-0.0004
3722.00,-0.0004
3721.00,-0.0004
3720.00,-0.0004
3719.00,-0.0004
3718.00,-0.0004
3717.00,-0.0004
3716.00,-0.0004
3715.00,-0.0004
3714.00,-0.0004
3713.00,-0.0004
3712.00,-0.0004
3711.00,-0.0004
3710.00,-0.0004
3709.00,-0.0004
3708.00,-0.0004
3707.00,-0.0004
3706.00,-0.0004
3705.00,-0.0004
3704.00,-0.0004
3703.00,-0.0004
3702.00,-0.0004
3701.00,-0.0003
3700.00,-0.0003
3699.00,-0.0003
3698.00,-0.0003
3697.00,-0.0003
3696.00,-0.0003
3695.00,-0.0003
3694.00,-0.0003
3693.00,-0.0004
3692.00,-0.0004
3691.00,-0.0004
3690.00,-0.0004
3689.00,-0.0004
3688.00,-0.0004
3687.00,-0.0004
3686.00,-0.0004
3685.00,-0.0004
3684.00,-0.0003
3683.00,-0.0003
3682.00,-0.0003
3681.00,-0.0003
3680.00,-0.0003
3679.00,-0.0003
3678.00,-0.0004
3677.00,-0.0005
3676.00,-0.0005
3675.00,-0.0004
3674.00,-0.0004
3673.00,-0.0005
3672.00,-0.0005
3671.00,-0.0006
3670.00,-0.0005
3669.00,-0.0004
3668.00,-0.0004
3667.00,-0.0004
3666.00,-0.0003
3665.00,-0.0003
3664.00,-0.0003
3663.00,-0.0003
3662.00,-0.0003
3661.00,-0.0003
3660.00,-0.0003
3659.00,-0.0003
3658.00,-0.0004
3657.00,-0.0004
3656.00,-0.0004
3655.00,-0.0004
3654.00,-0.0004
3653.00,-0.0005
3652.00,-0.0006
3651.00,-0.0006
3650.00,-0.0006
3649.00,-0.0006
3648.00,-0.0006
3647.00,-0.0006
3646.00,-0.0005
3645.00,-0.0005
3644.00,-0.0004
3643.00,-0.0004
3642.00,-0.0004
3641.00,-0.0003
3640.00,-0.0003
3639.00,-0.0003
3638.00,-0.0003
3637.00,-0.0004
3636.00,-0.0004
3635.00,-0.0004
3634.00,-0.0004
3633.00,-0.0005
3632.00,-0.0005
3631.00,-0.0005
3630.00,-0.0006
3629.00,-0.0005
3628.00,-0.0005
3627.00,-0.0005
3626.00,-0.0005
3625.00,-0.0005
3624.00,-0.0005
3623.00,-0.0005
3622.00,-0.0005
3621.00,-0.0005
3620.00,-0.0005
3619.00,-0.0006
3618.00,-0.0006
3617.00,-0.0006
3616.00,-0.0006
3615.00,-0.0006
3614.00,-0.0006
3613.00,-0.0006
3612.00,-0.0005
3611.00,-0.0006
3610.00,-0.0006
3609.00,-0.0006
3608.00,-0.0005
3607.00,-0.0005
3606.00,-0.0005
3605.00,-0.0005
3604.00,-0.0005
3603.00,-0.0005
3602.00,-0.0004
3601.00,-0.0004
3600.00,-0.0004
3599.00,-0.0004
3598.00,-0.0005
3597.00,-0.0005
3596.00,-0.0005
3595.00,-0.0005
3594.00,-0.0005
3593.00,-0.0005
3592.00,-0.0005
3591.00,-0.0005
3590.00,-0.0005
3589.00,-0.0005
3588.00,-0.0005
3587.00,-0.0005
3586.00,-0.0005
3585.00,-0.0005
3584.00,-0.0005
3583.00,-0.0005
3582.00,-0.0004
3581.00,-0.0004
3580.00,-0.0004
3579.00,-0.0004
3578.00,-0.0004
3577.00,-0.0004
3576.00,-0.0004
3575.00,-0.0004
3574.00,-0.0004
3573.00,-0.0005
3572.00,-0.0005
3571.00,-0.0005
3570.00,-0.0005
3569.00,-0.0006
3568.00,-0.0006
3567.00,-0.0006
3566.00,-0.0006
3565.00,-0.0006
3564.00,-0.0005
3563.00,-0.0005
3562.00,-0.0004
3561.00,-0.0004
3560.00,-0.0004
3559.00,-0.0004
3558.00,-0.0004
3557.00,-0.0004
3556.00,-0.0004
3555.00,-0.0004
3554.00,-0.0004
3553.00,-0.0005
3552.00,-0.0005
3551.00,-0.0005
3550.00,-0.0005
3549.00,-0.0005
3548.00,-0.0005
3547.00,-0.0005
3546.00,-0.0005
3545.00,-0.0005
3544.00,-0.0005
3543.00,-0.0005
3542.00,-0.0005
3541.00,-0.0005
3540.00,-0.0005
3539.00,-0.0005
3538.00,-0.0005
3537.00,-0.0005
3536.00,-0.0005
3535.00,-0.0005
3534.00,-0.0005
3533.00,-0.0005
3532.00,-0.0005
3531.00,-0.0005
3530.00,-0.0005
3529.00,-0.0005
3528.00,-0.0005
3527.00,-0.0005
3526.00,-0.0005
3525.00,-0.0005
3524.00,-0.0005
3523.00,-0.0005
3522.00,-0.0005
3521.00,-0.0005
3520.00,-0.0005
3519.00,-0.0005
3518.00,-0.0005
3517.00,-0.0005
3516.00,-0.0005
3515.00,-0.0005
3514.00,-0.0005
3513.00,-0.0005
3512.00,-0.0005
3511.00,-0.0005
3510.00,-0.0005
3509.00,-0.0005
3508.00,-0.0005
3507.00,-0.0005
3506.00,-0.0005
3505.00,-0.0005
3504.00,-0.0005
3503.00,-0.0005
3502.00,-0.0005
3501.00,-0.0005
3500.00,-0.0005
3499.00,-0.0005
3498.00,-0.0005
3497.00,-0.0005
3496.00,-0.0005
3495.00,-0.0005
3494.00,-0.0005
3493.00,-0.0005
3492.00,-0.0005
3491.00,-0.0005
3490.00,-0.0005
3489.00,-0.0005
3488.00,-0.0005
3487.00,-0.0005
3486.00,-0.0005
3485.00,-0.0005
3484.00,-0.0005
3483.00,-0.0006
3482.00,-0.0006
3481.00,-0.0005
3480.00,-0.0005
3479.00,-0.0005
3478.00,-0.0005
3477.00,-0.0005
3476.00,-0.0005
3475.00,-0.0005
3474.00,-0.0005
3473.00,-0.0005
3472.00,-0.0005
3471.00,-0.0005
3470.00,-0.0006
3469.00,-0.0006
3468.00,-0.0006
3467.00,-0.0006
3466.00,-0.0006
3465.00,-0.0006
3464.00,-0.0006
3463.00,-0.0006
3462.00,-0.0006
3461.00,-0.0005
3460.00,-0.0005
3459.00,-0.0005
3458.00,-0.0005
3457.00,-0.0005
3456.00,-0.0005
3455.00,-0.0005
3454.00,-0.0005
3453.00,-0.0005
3452.00,-0.0005
3451.00,-0.0006
3450.00,-0.0006
3449.00,-0.0006
3448.00,-0.0006
3447.00,-0.0006
3446.00,-0.0006
3445.00,-0.0006
3444.00,-0.0006
3443.00,-0.0006
3442.00,-0.0006
3441.00,-0.0006
3440.00,-0.0006
3439.00,-0.0006
3438.00,-0.0006
3437.00,-0.0006
3436.00,-0.0005
3435.00,-0.0005
3434.00,-0.0005
3433.00,-0.0005
3432.00,-0.0006
3431.00,-0.0006
3430.00,-0.0006
3429.00,-0.0006
3428.00,-0.0006
3427.00,-0.0006
3426.00,-0.0006
3425.00,-0.0006
3424.00,-0.0005
3423.00,-0.0005
3422.00,-0.0006
3421.00,-0.0006
3420.00,-0.0006
3419.00,-0.0006
3418.00,-0.0006
3417.00,-0.0006
3416.00,-0.0006
3415.00,-0.0006
3414.00,-0.0006
3413.00,-0.0006
3412.00,-0.0006
3411.00,-0.0006
3410.00,-0.0006
3409.00,-0.0006
3408.00,-0.0006
3407.00,-0.0005
3406.00,-0.0005
3405.00,-0.0005
3404.00,-0.0005
3403.00,-0.0005
3402.00,-0.0005
3401.00,-0.0006
3400.00,-0.0006
3399.00,-0.0006
3398.00,-0.0006
3397.00,-0.0006
3396.00,-0.0006
3395.00,-0.0006
3394.00,-0.0006
3393.00,-0.0006
3392.00,-0.0006
3391.00,-0.0005
3390.00,-0.0005
3389.00,-0.0005
3388.00,-0.0005
3387.00,-0.0005
3386.00,-0.0006
3385.00,-0.0006
3384.00,-0.0006
3383.00,-0.0006
3382.00,-0.0006
3381.00,-0.0006
3380.00,-0.0005
3379.00,-0.0005
3378.00,-0.0005
3377.00,-0.0005
3376.00,-0.0005
3375.00,-0.0005
3374.00,-0.0006
3373.00,-0.0006
3372.00,-0.0006
3371.00,-0.0006
3370.00,-0.0006
3369.00,-0.0005
3368.00,-0.0005
3367.00,-0.0005
3366.00,-0.0005
3365.00,-0.0005
3364.00,-0.0005
3363.00,-0.0005
3362.00,-0.0005
3361.00,-0.0005
3360.00,-0.0006
3359.00,-0.0005
3358.00,-0.0005
3357.00,-0.0005
3356.00,-0.0005
3355.00,-0.0005
3354.00,-0.0005
3353.00,-0.0005
3352.00,-0.0005
3351.00,-0.0005
3350.00,-0.0005
3349.00,-0.0005
3348.00,-0.0005
3347.00,-0.0005
3346.00,-0.0005
3345.00,-0.0005
3344.00,-0.0005
3343.00,-0.0005
3342.00,-0.0005
3341.00,-0.0005
3340.00,-0.0005
3339.00,-0.0005
3338.00,-0.0005
3337.00,-0.0005
3336.00,-0.0005
3335.00,-0.0005
3334.00,-0.0005
3333.00,-0.0005
3332.00,-0.0005
3331.00,-0.0005
3330.00,-0.0005
3329.00,-0.0005
3328.00,-0.0005
3327.00,-0.0005
3326.00,-0.0005
3325.00,-0.0005
3324.00,-0.0005
3323.00,-0.0005
3322.00,-0.0005
3321.00,-0.0005
3320.00,-0.0005
3319.00,-0.0005
3318.00,-0.0005
3317.00,-0.0005
3316.00,-0.0005
3315.00,-0.0005
3314.00,-0.0005
3313.00,-0.0005
3312.00,-0.0005
3311.00,-0.0005
3310.00,-0.0005
3309.00,-0.0005
3308.00,-0.0005
3307.00,-0.0005
3306.00,-0.0005
3305.00,-0.0005
3304.00,-0.0005
3303.00,-0.0005
3302.00,-0.0005
3301.00,-0.0005
3300.00,-0.0005
3299.00,-0.0005
3298.00,-0.0005
3297.00,-0.0005
3296.00,-0.0005
3295.00,-0.0005
3294.00,-0.0005
3293.00,-0.0005
3292.00,-0.0005
3291.00,-0.0005
3290.00,-0.0005
3289.00,-0.0005
3288.00,-0.0005
3287.00,-0.0005
3286.00,-0.0004
3285.00,-0.0004
3284.00,-0.0004
3283.00,-0.0004
3282.00,-0.0004
3281.00,-0.0004
3280.00,-0.0004
3279.00,-0.0004
3278.00,-0.0004
3277.00,-0.0004
3276.00,-0.0004
3275.00,-0.0004
3274.00,-0.0004
3273.00,-0.0004
3272.00,-0.0004
3271.00,-0.0004
3270.00,-0.0004
3269.00,-0.0004
3268.00,-0.0004
3267.00,-0.0004
3266.00,-0.0004
3265.00,-0.0004
3264.00,-0.0004
3263.00,-0.0004
3262.00,-0.0004
3261.00,-0.0004
3260.00,-0.0004
3259.00,-0.0004
3258.00,-0.0004
3257.00,-0.0004
3256.00,-0.0004
3255.00,-0.0004
3254.00,-0.0004
3253.00,-0.0004
3252.00,-0.0004
3251.00,-0.0004
3250.00,-0.0004
3249.00,-0.0004
3248.00,-0.0004
3247.00,-0.0004
3246.00,-0.0004
3245.00,-0.0004
3244.00,-0.0004
3243.00,-0.0004
3242.00,-0.0004
3241.00,-0.0004
3240.00,-0.0004
3239.00,-0.0004
3238.00,-0.0004
3237.00,-0.0004
3236.00,-0.0004
3235.00,-0.0004
3234.00,-0.0004
3233.00,-0.0004
3232.00,-0.0004
3231.00,-0.0004
3230.00,-0.0004
3229.00,-0.0004
3228.00,-0.0004
3227.00,-0.0004
3226.00,-0.0004
3225.00,-0.0004
3224.00,-0.0004
3223.00,-0.0004
3222.00,-0.0004
3221.00,-0.0004
3220.00,-0.0004
3219.00,-0.0004
3218.00,-0.0004
3217.00,-0.0004
3216.00,-0.0004
3215.00,-0.0004
3214.00,-0.0004
3213.00,-0.0004
3212.00,-0.0004
3211.00,-0.0004
3210.00,-0.0004
3209.00,-0.0004
3208.00,-0.0004
3207.00,-0.0004
3206.00,-0.0004
3205.00,-0.0004
3204.00,-0.0004
3203.00,-0.0004
3202.00,-0.0004
3201.00,-0.0004
3200.00,-0.0004
3199.00,-0.0004
3198.00,-0.0004
3197.00,-0.0004
3196.00,-0.0004
3195.00,-0.0004
3194.00,-0.0004
3193.00,-0.0004
3192.00,-0.0004
3191.00,-0.0004
3190.00,-0.0004
3189.00,-0.0004
3188.00,-0.0003
3187.00,-0.0003
3186.00,-0.0004
3185.00,-0.0004
3184.00,-0.0004
3183.00,-0.0004
3182.00,-0.0004
3181.00,-0.0004
3180.00,-0.0004
3179.00,-0.0004
3178.00,-0.0004
3177.00,-0.0004
3176.00,-0.0004
3175.00,-0.0004
3174.00,-0.0003
3173.00,-0.0003
3172.00,-0.0003
3171.00,-0.0004
3170.00,-0.0004
3169.00,-0.0004
3168.00,-0.0004
3167.00,-0.0003
3166.00,-0.0003
3165.00,-0.0003
3164.00,-0.0003
3163.00,-0.0003
3162.00,-0.0003
3161.00,-0.0003
3160.00,-0.0003
3159.00,-0.0003
3158.00,-0.0003
3157.00,-0.0003
3156.00,-0.0003
3155.00,-0.0003
3154.00,-0.0003
3153.00,-0.0004
3152.00,-0.0004
3151.00,-0.0004
3150.00,-0.0004
3149.00,-0.0004
3148.00,-0.0004
3147.00,-0.0003
3146.00,-0.0003
3145.00,-0.0003
3144.00,-0.0003
3143.00,-0.0003
3142.00,-0.0003
3141.00,-0.0003
3140.00,-0.0003
3139.00,-0.0003
3138.00,-0.0003
3137.00,-0.0004
3136.00,-0.0004
3135.00,-0.0004
3134.00,-0.0004
3133.00,-0.0003
3132.00,-0.0003
3131.00,-0.0003
3130.00,-0.0003
3129.00,-0.0003
3128.00,-0.0003
3127.00,-0.0003
3126.00,-0.0003
3125.00,-0.0003
3124.00,-0.0004
3123.00,-0.0004
3122.00,-0.0003
3121.00,-0.0003
3120.00,-0.0003
3119.00,-0.0003
3118.00,-0.0003
3117.00,-0.0003
3116.00,-0.0003
3115.00,-0.0003
3114.00,-0.0003
3113.00,-0.0003
3112.00,-0.0003
3111.00,-0.0003
3110.00,-0.0003
3109.00,-0.0003
3108.00,-0.0003
3107.00,-0.0003
3106.00,-0.0003
3105.00,-0.0003
3104.00,-0.0003
3103.00,-0.0003
3102.00,-0.0003
3101.00,-0.0003
3100.00,-0.0003
3099.00,-0.0003
3098.00,-0.0003
3097.00,-0.0003
3096.00,-0.0003
3095.00,-0.0003
3094.00,-0.0003
3093.00,-0.0003
3092.00,-0.0003
3091.00,-0.0003
3090.00,-0.0003
3089.00,-0.0003
3088.00,-0.0003
3087.00,-0.0003
3086.00,-0.0003
3085.00,-0.0003
3084.00,-0.0003
3083.00,-0.0003
3082.00,-0.0003
3081.00,-0.0003
3080.00,-0.0003
3079.00,-0.0003
3078.00,-0.0003
3077.00,-0.0003
3076.00,-0.0003
3075.00,-0.0003
3074.00,-0.0003
3073.00,-0.0003
3072.00,-0.0003
3071.00,-0.0003
3070.00,-0.0003
3069.00,-0.0003
3068.00,-0.0003
3067.00,-0.0003
3066.00,-0.0003
3065.00,-0.0003
3064.00,-0.0003
3063.00,-0.0003
3062.00,-0.0003
3061.00,-0.0003
3060.00,-0.0003
3059.00,-0.0003
3058.00,-0.0003
3057.00,-0.0003
3056.00,-0.0003
3055.00,-0.0003
3054.00,-0.0003
3053.00,-0.0003
3052.00,-0.0003
3051.00,-0.0003
3050.00,-0.0003
3049.00,-0.0003
3048.00,-0.0003
3047.00,-0.0003
3046.00,-0.0003
3045.00,-0.0003
3044.00,-0.0003
3043.00,-0.0003
3042.00,-0.0003
3041.00,-0.0003
3040.00,-0.0003
3039.00,-0.0003
3038.00,-0.0003
3037.00,-0.0003
3036.00,-0.0003
3035.00,-0.0003
3034.00,-0.0003
3033.00,-0.0003
3032.00,-0.0003
3031.00,-0.0003
3030.00,-0.0003
3029.00,-0.0003
3028.00,-0.0003
3027.00,-0.0003
3026.00,-0.0003
3025.00,-0.0003
3024.00,-0.0003
3023.00,-0.0003
3022.00,-0.0003
3021.00,-0.0002
3020.00,-0.0003
3019.00,-0.0003
3018.00,-0.0003
3017.00,-0.0003
3016.00,-0.0003
3015.00,-0.0003
3014.00,-0.0003
3013.00,-0.0003
3012.00,-0.0003
3011.00,-0.0003
3010.00,-0.0003
3009.00,-0.0003
3008.00,-0.0003
3007.00,-0.0003
3006.00,-0.0003
3005.00,-0.0003
3004.00,-0.0003
3003.00,-0.0003
3002.00,-0.0003
3001.00,-0.0003
3000.00,-0.0003
2999.00,-0.0003
2998.00,-0.0003
2997.00,-0.0002
2996.00,-0.0002
2995.00,-0.0003
2994.00,-0.0003
2993.00,-0.0003
2992.00,-0.0003
2991.00,-0.0002
2990.00,-0.0002
2989.00,-0.0002
2988.00,-0.0003
2987.00,-0.0003
2986.00,-0.0003
2985.00,-0.0002
2984.00,-0.0002
2983.00,-0.0002
2982.00,-0.0002
2981.00,-0.0002
2980.00,-0.0002
2979.00,-0.0002
2978.00,-0.0002
2977.00,-0.0002
2976.00,-0.0002
2975.00,-0.0002
2974.00,-0.0002
2973.00,-0.0002
2972.00,-0.0002
2971.00,-0.0002
2970.00,-0.0003
2969.00,-0.0003
2968.00,-0.0003
2967.00,-0.0003
2966.00,-0.0003
2965.00,-0.0003
2964.00,-0.0003
2963.00,-0.0003
2962.00,-0.0003
2961.00,-0.0003
2960.00,-0.0003
2959.00,-0.0002
2958.00,-0.0002
2957.00,-0.0002
2956.00,-0.0002
2955.00,-0.0002
2954.00,-0.0002
2953.00,-0.0003
2952.00,-0.0003
2951.00,-0.0003
2950.00,-0.0003
2949.00,-0.0003
2948.00,-0.0003
2947.00,-0.0003
2946.00,-0.0003
2945.00,-0.0003
2944.00,-0.0003
2943.00,-0.0003
2942.00,-0.0003
2941.00,-0.0003
2940.00,-0.0003
2939.00,-0.0003
2938.00,-0.0003
2937.00,-0.0003
2936.00,-0.0003
2935.00,-0.0003
2934.00,-0.0003
2933.00,-0.0003
2932.00,-0.0003
2931.00,-0.0003
2930.00,-0.0003
2929.00,-0.0003
2928.00,-0.0003
2927.00,-0.0003
2926.00,-0.0003
2925.00,-0.0002
2924.00,-0.0002
2923.00,-0.0002
2922.00,-0.0002
2921.00,-0.0002
2920.00,-0.0002
2919.00,-0.0002
2918.00,-0.0002
2917.00,-0.0002
2916.00,-0.0002
2915.00,-0.0002
2914.00,-0.0002
2913.00,-0.0002
2912.00,-0.0002
2911.00,-0.0002
2910.00,-0.0002
2909.00,-0.0003
2908.00,-0.0003
2907.00,-0.0003
2906.00,-0.0003
2905.00,-0.0003
2904.00,-0.0003
2903.00,-0.0003
2902.00,-0.0003
2901.00,-0.0003
2900.00,-0.0002
2899.00,-0.0002
2898.00,-0.0002
2897.00,-0.0002
2896.00,-0.0002
2895.00,-0.0002
2894.00,-0.0002
2893.00,-0.0002
2892.00,-0.0002
2891.00,-0.0002
2890.00,-0.0002
2889.00,-0.0002
2888.00,-0.0002
2887.00,-0.0002
2886.00,-0.0002
2885.00,-0.0002
2884.00,-0.0003
2883.00,-0.0002
2882.00,-0.0002
2881.00,-0.0002
2880.00,-0.0002
2879.00,-0.0002
2878.00,-0.0002
2877.00,-0.0002
2876.00,-0.0002
2875.00,-0.0002
2874.00,-0.0002
2873.00,-0.0002
2872.00,-0.0002
2871.00,-0.0002
2870.00,-0.0002
2869.00,-0.0002
2868.00,-0.0002
2867.00,-0.0002
2866.00,-0.0002
2865.00,-0.0002
2864.00,-0.0002
2863.00,-0.0002
2862.00,-0.0002
2861.00,-0.0002
2860.00,-0.0002
2859.00,-0.0002
2858.00,-0.0002
2857.00,-0.0003
2856.00,-0.0003
2855.00,-0.0002
2854.00,-0.0002
2853.00,-0.0002
2852.00,-0.0002
2851.00,-0.0003
2850.00,-0.0003
2849.00,-0.0003
2848.00,-0.0003
2847.00,-0.0002
2846.00,-0.0002
2845.00,-0.0002
2844.00,-0.0002
2843.00,-0.0002
2842.00,-0.0002
2841.00,-0.0002
2840.00,-0.0003
2839.00,-0.0002
2838.00,-0.0002
2837.00,-0.0002
2836.00,-0.0002
2835.00,-0.0002
2834.00,-0.0002
2833.00,-0.0002
2832.00,-0.0002
2831.00,-0.0002
2830.00,-0.0002
2829.00,-0.0002
2828.00,-0.0002
2827.00,-0.0002
2826.00,-0.0002
2825.00,-0.0002
2824.00,-0.0002
2823.00,-0.0002
2822.00,-0.0002
2821.00,-0.0002
2820.00,-0.0002
2819.00,-0.0002
2818.00,-0.0002
2817.00,-0.0002
2816.00,-0.0002
2815.00,-0.0002
2814.00,-0.0002
2813.00,-0.0002
2812.00,-0.0002
2811.00,-0.0002
2810.00,-0.0002
2809.00,-0.0002
2808.00,-0.0002
2807.00,-0.0003
2806.00,-0.0003
2805.00,-0.0003
2804.00,-0.0003
2803.00,-0.0002
2802.00,-0.0002
2801.00,-0.0002
2800.00,-0.0002
2799.00,-0.0002
2798.00,-0.0002
2797.00,-0.0002
2796.00,-0.0002
2795.00,-0.0002
2794.00,-0.0002
2793.00,-0.0002
2792.00,-0.0002
2791.00,-0.0002
2790.00,-0.0002
2789.00,-0.0002
2788.00,-0.0002
2787.00,-0.0002
2786.00,-0.0002
2785.00,-0.0002
2784.00,-0.0002
2783.00,-0.0002
2782.00,-0.0002
2781.00,-0.0002
2780.00,-0.0002
2779.00,-0.0002
2778.00,-0.0002
2777.00,-0.0002
2776.00,-0.0002
2775.00,-0.0002
2774.00,-0.0002
2773.00,-0.0002
2772.00,-0.0002
2771.00,-0.0002
2770.00,-0.0002
2769.00,-0.0002
2768.00,-0.0002
2767.00,-0.0002
2766.00,-0.0002
2765.00,-0.0002
2764.00,-0.0002
2763.00,-0.0002
2762.00,-0.0002
2761.00,-0.0002
2760.00,-0.0002
2759.00,-0.0002
2758.00,-0.0003
2757.00,-0.0003
2756.00,-0.0003
2755.00,-0.0003
2754.00,-0.0002
2753.00,-0.0002
2752.00,-0.0002
2751.00,-0.0003
2750.00,-0.0003
2749.00,-0.0003
2748.00,-0.0002
2747.00,-0.0002
2746.00,-0.0002
2745.00,-0.0002
2744.00,-0.0002
2743.00,-0.0002
2742.00,-0.0002
2741.00,-0.0002
2740.00,-0.0002
2739.00,-0.0002
2738.00,-0.0002
2737.00,-0.0002
2736.00,-0.0002
2735.00,-0.0002
2734.00,-0.0002
2733.00,-0.0002
2732.00,-0.0002
2731.00,-0.0002
2730.00,-0.0002
2729.00,-0.0002
2728.00,-0.0003
2727.00,-0.0003
2726.00,-0.0003
2725.00,-0.0003
2724.00,-0.0003
2723.00,-0.0002
2722.00,-0.0002
2721.00,-0.0002
2720.00,-0.0002
2719.00,-0.0002
2718.00,-0.0002
2717.00,-0.0002
2716.00,-0.0002
2715.00,-0.0002
2714.00,-0.0002
2713.00,-0.0002
2712.00,-0.0002
2711.00,-0.0002
2710.00,-0.0002
2709.00,-0.0002
2708.00,-0.0002
2707.00,-0.0002
2706.00,-0.0002
2705.00,-0.0002
2704.00,-0.0002
2703.00,-0.0002
2702.00,-0.0002
2701.00,-0.0002
2700.00,-0.0002
2699.00,-0.0002
2698.00,-0.0002
2697.00,-0.0002
2696.00,-0.0002
2695.00,-0.0002
2694.00,-0.0002
2693.00,-0.0002
2692.00,-0.0002
2691.00,-0.0002
2690.00,-0.0002
2689.00,-0.0002
2688.00,-0.0002
2687.00,-0.0002
2686.00,-0.0002
2685.00,-0.0002
2684.00,-0.0002
2683.00,-0.0002
2682.00,-0.0002
2681.00,-0.0002
2680.00,-0.0002
2679.00,-0.0002
2678.00,-0.0002
2677.00,-0.0002
2676.00,-0.0002
2675.00,-0.0002
2674.00,-0.0002
2673.00,-0.0002
2672.00,-0.0002
2671.00,-0.0002
2670.00,-0.0002
2669.00,-0.0002
2668.00,-0.0002
2667.00,-0.0002
2666.00,-0.0002
2665.00,-0.0002
2664.00,-0.0002
2663.00,-0.0002
2662.00,-0.0002
2661.00,-0.0002
2660.00,-0.0002
2659.00,-0.0002
2658.00,-0.0002
2657.00,-0.0002
2656.00,-0.0002
2655.00,-0.0002
2654.00,-0.0002
2653.00,-0.0002
2652.00,-0.0002
2651.00,-0.0002
2650.00,-0.0002
2649.00,-0.0002
2648.00,-0.0002
2647.00,-0.0002
2646.00,-0.0002
2645.00,-0.0002
2644.00,-0.0002
2643.00,-0.0002
2642.00,-0.0002
2641.00,-0.0002
2640.00,-0.0002
2639.00,-0.0002
2638.00,-0.0002
2637.00,-0.0002
2636.00,-0.0002
2635.00,-0.0002
2634.00,-0.0002
2633.00,-0.0002
2632.00,-0.0002
2631.00,-0.0002
2630.00,-0.0002
2629.00,-0.0002
2628.00,-0.0002
2627.00,-0.0002
2626.00,-0.0002
2625.00,-0.0002
2624.00,-0.0002
2623.00,-0.0002
2622.00,-0.0002
2621.00,-0.0002
2620.00,-0.0002
2619.00,-0.0002
2618.00,-0.0002
2617.00,-0.0002
2616.00,-0.0002
2615.00,-0.0002
2614.00,-0.0002
2613.00,-0.0002
2612.00,-0.0002
2611.00,-0.0002
2610.00,-0.0002
2609.00,-0.0002
2608.00,-0.0002
2607.00,-0.0002
2606.00,-0.0002
2605.00,-0.0002
2604.00,-0.0002
2603.00,-0.0002
2602.00,-0.0002
2601.00,-0.0002
2600.00,-0.0002
2599.00,-0.0002
2598.00,-0.0002
2597.00,-0.0002
2596.00,-0.0002
2595.00,-0.0002
2594.00,-0.0002
2593.00,-0.0002
2592.00,-0.0002
2591.00,-0.0002
2590.00,-0.0002
2589.00,-0.0002
2588.00,-0.0002
2587.00,-0.0002
2586.00,-0.0002
2585.00,-0.0002
2584.00,-0.0002
2583.00,-0.0002
2582.00,-0.0002
2581.00,-0.0002
2580.00,-0.0002
2579.00,-0.0002
2578.00,-0.0002
2577.00,-0.0002
2576.00,-0.0002
2575.00,-0.0002
2574.00,-0.0002
2573.00,-0.0002
2572.00,-0.0002
2571.00,-0.0002
2570.00,-0.0002
2569.00,-0.0002
2568.00,-0.0002
2567.00,-0.0002
2566.00,-0.0002
2565.00,-0.0002
2564.00,-0.0002
2563.00,-0.0002
2562.00,-0.0002
2561.00,-0.0002
2560.00,-0.0002
2559.00,-0.0002
2558.00,-0.0002
2557.00,-0.0002
2556.00,-0.0002
2555.00,-0.0002
2554.00,-0.0002
2553.00,-0.0002
2552.00,-0.0002
2551.00,-0.0002
2550.00,-0.0002
2549.00,-0.0002
2548.00,-0.0002
2547.00,-0.0002
2546.00,-0.0002
2545.00,-0.0002
2544.00,-0.0002
2543.00,-0.0002
2542.00,-0.0002
2541.00,-0.0002
2540.00,-0.0002
2539.00,-0.0002
2538.00,-0.0002
2537.00,-0.0002
2536.00,-0.0002
2535.00,-0.0002
2534.00,-0.0002
2533.00,-0.0002
2532.00,-0.0002
2531.00,-0.0002
2530.00,-0.0002
2529.00,-0.0002
2528.00,-0.0002
2527.00,-0.0002
2526.00,-0.0002
2525.00,-0.0002
2524.00,-0.0002
2523.00,-0.0002
2522.00,-0.0002
2521.00,-0.0002
2520.00,-0.0002
2519.00,-0.0002
2518.00,-0.0002
2517.00,-0.0002
2516.00,-0.0002
2515.00,-0.0002
2514.00,-0.0002
2513.00,-0.0002
2512.00,-0.0002
2511.00,-0.0002
2510.00,-0.0002
2509.00,-0.0002
2508.00,-0.0002
2507.00,-0.0002
2506.00,-0.0002
2505.00,-0.0002
2504.00,-0.0002
2503.00,-0.0002
2502.00,-0.0002
2501.00,-0.0002
2500.00,-0.0002
2499.00,-0.0002
2498.00,-0.0002
2497.00,-0.0002
2496.00,-0.0002
2495.00,-0.0002
2494.00,-0.0002
2493.00,-0.0002
2492.00,-0.0002
2491.00,-0.0002
2490.00,-0.0002
2489.00,-0.0002
2488.00,-0.0002
2487.00,-0.0002
2486.00,-0.0002
2485.00,-0.0002
2484.00,-0.0002
2483.00,-0.0002
2482.00,-0.0002
2481.00,-0.0002
2480.00,-0.0002
2479.00,-0.0002
2478.00,-0.0002
2477.00,-0.0002
2476.00,-0.0002
2475.00,-0.0002
2474.00,-0.0002
2473.00,-0.0002
2472.00,-0.0002
2471.00,-0.0002
2470.00,-0.0002
2469.00,-0.0002
2468.00,-0.0002
2467.00,-0.0002
2466.00,-0.0002
2465.00,-0.0002
2464.00,-0.0002
2463.00,-0.0002
2462.00,-0.0002
2461.00,-0.0002
2460.00,-0.0002
2459.00,-0.0002
2458.00,-0.0002
2457.00,-0.0002
2456.00,-0.0002
2455.00,-0.0002
2454.00,-0.0002
2453.00,-0.0002
2452.00,-0.0002
2451.00,-0.0002
2450.00,-0.0002
2449.00,-0.0002
2448.00,-0.0002
2447.00,-0.0002
2446.00,-0.0002
2445.00,-0.0002
2444.00,-0.0002
2443.00,-0.0002
2442.00,-0.0002
2441.00,-0.0002
2440.00,-0.0002
2439.00,-0.0002
2438.00,-0.0003
2437.00,-0.0003
2436.00,-0.0003
2435.00,-0.0003
2434.00,-0.0002
2433.00,-0.0002
2432.00,-0.0002
2431.00,-0.0002
2430.00,-0.0002
2429.00,-0.0002
2428.00,-0.0002
2427.00,-0.0002
2426.00,-0.0002
2425.00,-0.0003
2424.00,-0.0003
2423.00,-0.0003
2422.00,-0.0003
2421.00,-0.0002
2420.00,-0.0002
2419.00,-0.0002
2418.00,-0.0002
2417.00,-0.0002
2416.00,-0.0002
2415.00,-0.0002
2414.00,-0.0002
2413.00,-0.0002
2412.00,-0.0002
2411.00,-0.0002
2410.00,-0.0002
2409.00,-0.0002
2408.00,-0.0002
2407.00,-0.0002
2406.00,-0.0002
2405.00,-0.0002
2404.00,-0.0002
2403.00,-0.0002
2402.00,-0.0002
2401.00,-0.0002
2400.00,-0.0002
2399.00,-0.0002
2398.00,-0.0002
2397.00,-0.0002
2396.00,-0.0002
2395.00,-0.0002
2394.00,-0.0002
2393.00,-0.0002
2392.00,-0.0002
2391.00,-0.0002
2390.00,-0.0002
2389.00,-0.0002
2388.00,-0.0002
2387.00,-0.0001
2386.00,-0.0001
2385.00,-0.0001
2384.00,-0.0001
2383.00,-0.0001
2382.00,-0.0001
2381.00,-0.0001
2380.00,-0.0001
2379.00,-0.0001
2378.00,-0.0001
2377.00,-0.0002
2376.00,-0.0002
2375.00,-0.0001
2374.00,-0.0001
2373.00,-0.0001
2372.00,-0.0001
2371.00,-0.0001
2370.00,-0.0001
2369.00,-0.0000
2368.00,-0.0000
2367.00,0.0000
2366.00,0.0000
2365.00,0.0000
2364.00,-0.0000
2363.00,-0.0000
2362.00,0.0000
2361.00,0.0000
2360.00,0.0000
2359.00,0.0000
2358.00,0.0001
2357.00,0.0001
2356.00,0.0001
2355.00,0.0002
2354.00,0.0001
2353.00,0.0001
2352.00,-0.0000
2351.00,-0.0001
2350.00,-0.0000
2349.00,0.0001
2348.00,0.0002
2347.00,0.0003
2346.00,0.0002
2345.00,0.0001
2344.00,0.0001
2343.00,0.0002
2342.00,0.0002
2341.00,0.0002
2340.00,0.0002
2339.00,0.0001
2338.00,0.0001
2337.00,0.0001
2336.00,0.0001
2335.00,0.0001
2334.00,0.0001
2333.00,0.0001
2332.00,0.0001
2331.00,0.0001
2330.00,0.0001
2329.00,0.0001
2328.00,0.0001
2327.00,0.0001
2326.00,0.0002
2325.00,0.0002
2324.00,0.0002
2323.00,0.0002
2322.00,0.0002
2321.00,0.0002
2320.00,0.0002
2319.00,0.0002
2318.00,0.0002
2317.00,0.0001
2316.00,0.0001
2315.00,0.0001
2314.00,0.0001
2313.00,0.0001
2312.00,0.0000
2311.00,0.0000
2310.00,0.0000
2309.00,0.0000
2308.00,0.0000
2307.00,-0.0000
2306.00,-0.0000
2305.00,-0.0000
2304.00,-0.0000
2303.00,-0.0000
2302.00,-0.0000
2301.00,-0.0001
2300.00,-0.0001
2299.00,-0.0001
2298.00,-0.0001
2297.00,-0.0001
2296.00,-0.0001
2295.00,-0.0001
2294.00,-0.0001
2293.00,-0.0002
2292.00,-0.0002
2291.00,-0.0002
2290.00,-0.0002
2289.00,-0.0002
2288.00,-0.0002
2287.00,-0.0002
2286.00,-0.0002
2285.00,-0.0002
2284.00,-0.0002
2283.00,-0.0002
2282.00,-0.0002
2281.00,-0.0002
2280.00,-0.0002
2279.00,-0.0002
2278.00,-0.0002
2277.00,-0.0002
2276.00,-0.0002
2275.00,-0.0002
2274.00,-0.0002
2273.00,-0.0002
2272.00,-0.0002
2271.00,-0.0002
2270.00,-0.0002
2269.00,-0.0002
2268.00,-0.0002
2267.00,-0.0002
2266.00,-0.0002
2265.00,-0.0002
2264.00,-0.0002
2263.00,-0.0002
2262.00,-0.0002
2261.00,-0.0002
2260.00,-0.0002
2259.00,-0.0002
2258.00,-0.0002
2257.00,-0.0002
2256.00,-0.0002
2255.00,-0.0002
2254.00,-0.0002
2253.00,-0.0002
2252.00,-0.0002
2251.00,-0.0002
2250.00,-0.0002
2249.00,-0.0002
2248.00,-0.0002
2247.00,-0.0002
2246.00,-0.0002
2245.00,-0.0002
2244.00,-0.0002
2243.00,-0.0002
2242.00,-0.0002
2241.00,-0.0002
2240.00,-0.0002
2239.00,-0.0002
2238.00,-0.0002
2237.00,-0.0002
2236.00,-0.0002
2235.00,-0.0002
2234.00,-0.0002
2233.00,-0.0002
2232.00,-0.0002
2231.00,-0.0002
2230.00,-0.0002
2229.00,-0.0002
2228.00,-0.0002
2227.00,-0.0002
2226.00,-0.0002
2225.00,-0.0002
2224.00,-0.0002
2223.00,-0.0002
2222.00,-0.0002
2221.00,-0.0002
2220.00,-0.0002
2219.00,-0.0002
2218.00,-0.0002
2217.00,-0.0002
2216.00,-0.0002
2215.00,-0.0002
2214.00,-0.0002
2213.00,-0.0002
2212.00,-0.0002
2211.00,-0.0002
2210.00,-0.0002
2209.00,-0.0002
2208.00,-0.0002
2207.00,-0.0002
2206.00,-0.0002
2205.00,-0.0002
2204.00,-0.0002
2203.00,-0.0002
2202.00,-0.0002
2201.00,-0.0002
2200.00,-0.0002
2199.00,-0.0002
2198.00,-0.0002
2197.00,-0.0002
2196.00,-0.0002
2195.00,-0.0002
2194.00,-0.0002
2193.00,-0.0002
2192.00,-0.0002
2191.00,-0.0002
2190.00,-0.0002
2189.00,-0.0002
2188.00,-0.0002
2187.00,-0.0002
2186.00,-0.0002
2185.00,-0.0002
2184.00,-0.0002
2183.00,-0.0002
2182.00,-0.0003
2181.00,-0.0003
2180.00,-0.0002
2179.00,-0.0002
2178.00,-0.0002
2177.00,-0.0002
2176.00,-0.0002
2175.00,-0.0002
2174.00,-0.0002
2173.00,-0.0002
2172.00,-0.0002
2171.00,-0.0002
2170.00,-0.0002
2169.00,-0.0002
2168.00,-0.0002
2167.00,-0.0002
2166.00,-0.0002
2165.00,-0.0002
2164.00,-0.0002
2163.00,-0.0002
2162.00,-0.0002
2161.00,-0.0002
2160.00,-0.0002
2159.00,-0.0002
2158.00,-0.0002
2157.00,-0.0002
2156.00,-0.0002
2155.00,-0.0002
2154.00,-0.0002
2153.00,-0.0002
2152.00,-0.0002
2151.00,-0.0002
2150.00,-0.0002
2149.00,-0.0002
2148.00,-0.0002
2147.00,-0.0002
2146.00,-0.0002
2145.00,-0.0002
2144.00,-0.0002
2143.00,-0.0002
2142.00,-0.0002
2141.00,-0.0002
2140.00,-0.0002
2139.00,-0.0002
2138.00,-0.0002
2137.00,-0.0002
2136.00,-0.0002
2135.00,-0.0002
2134.00,-0.0002
2133.00,-0.0002
2132.00,-0.0002
2131.00,-0.0002
2130.00,-0.0002
2129.00,-0.0002
2128.00,-0.0002
2127.00,-0.0002
2126.00,-0.0002
2125.00,-0.0002
2124.00,-0.0002
2123.00,-0.0002
2122.00,-0.0002
2121.00,-0.0002
2120.00,-0.0002
2119.00,-0.0002
2118.00,-0.0002
2117.00,-0.0002
2116.00,-0.0002
2115.00,-0.0002
2114.00,-0.0002
2113.00,-0.0002
2112.00,-0.0002
2111.00,-0.0002
2110.00,-0.0002
2109.00,-0.0002
2108.00,-0.0002
2107.00,-0.0002
2106.00,-0.0002
2105.00,-0.0002
2104.00,-0.0002
2103.00,-0.0002
2102.00,-0.0002
2101.00,-0.0002
2100.00,-0.0002
2099.00,-0.0002
2098.00,-0.0002
2097.00,-0.0002
2096.00,-0.0002
2095.00,-0.0002
2094.00,-0.0002
2093.00,-0.0002
2092.00,-0.0002
2091.00,-0.0002
2090.00,-0.0002
2089.00,-0.0002
2088.00,-0.0002
2087.00,-0.0002
2086.00,-0.0002
2085.00,-0.0002
2084.00,-0.0002
2083.00,-0.0002
2082.00,-0.0002
2081.00,-0.0002
2080.00,-0.0003
2079.00,-0.0003
2078.00,-0.0003
2077.00,-0.0002
2076.00,-0.0002
2075.00,-0.0002
2074.00,-0.0002
2073.00,-0.0002
2072.00,-0.0002
2071.00,-0.0002
2070.00,-0.0002
2069.00,-0.0002
2068.00,-0.0002
2067.00,-0.0002
2066.00,-0.0002
2065.00,-0.0002
2064.00,-0.0002
2063.00,-0.0002
2062.00,-0.0002
2061.00,-0.0002
2060.00,-0.0002
2059.00,-0.0002
2058.00,-0.0002
2057.00,-0.0002
2056.00,-0.0002
2055.00,-0.0002
2054.00,-0.0002
2053.00,-0.0002
2052.00,-0.0002
2051.00,-0.0002
2050.00,-0.0002
2049.00,-0.0002
2048.00,-0.0002
2047.00,-0.0002
2046.00,-0.0002
2045.00,-0.0002
2044.00,-0.0002
2043.00,-0.0002
2042.00,-0.0002
2041.00,-0.0002
2040.00,-0.0002
2039.00,-0.0002
2038.00,-0.0002
2037.00,-0.0002
2036.00,-0.0002
2035.00,-0.0002
2034.00,-0.0002
2033.00,-0.0002
2032.00,-0.0002
2031.00,-0.0002
2030.00,-0.0002
2029.00,-0.0002
2028.00,-0.0002
2027.00,-0.0002
2026.00,-0.0002
2025.00,-0.0002
2024.00,-0.0002
2023.00,-0.0002
2022.00,-0.0002
2021.00,-0.0002
2020.00,-0.0002
2019.00,-0.0002
2018.00,-0.0002
2017.00,-0.0002
2016.00,-0.0002
2015.00,-0.0002
2014.00,-0.0002
2013.00,-0.0002
2012.00,-0.0002
2011.00,-0.0002
2010.00,-0.0002
2009.00,-0.0002
2008.00,-0.0002
2007.00,-0.0002
2006.00,-0.0002
2005.00,-0.0002
2004.00,-0.0002
2003.00,-0.0002
2002.00,-0.0002
2001.00,-0.0002
2000.00,-0.0002
1999.00,-0.0002
1998.00,-0.0002
1997.00,-0.0002
1996.00,-0.0002
1995.00,-0.0002
1994.00,-0.0002
1993.00,-0.0002
1992.00,-0.0002
1991.00,-0.0002
1990.00,-0.0002
1989.00,-0.0002
1988.00,-0.0002
1987.00,-0.0002
1986.00,-0.0002
1985.00,-0.0002
1984.00,-0.0002
1983.00,-0.0002
1982.00,-0.0002
1981.00,-0.0002
1980.00,-0.0002
1979.00,-0.0002
1978.00,-0.0002
1977.00,-0.0002
1976.00,-0.0002
1975.00,-0.0002
1974.00,-0.0002
1973.00,-0.0002
1972.00,-0.0002
1971.00,-0.0002
1970.00,-0.0002
1969.00,-0.0002
1968.00,-0.0002
1967.00,-0.0002
1966.00,-0.0002
1965.00,-0.0002
1964.00,-0.0002
1963.00,-0.0002
1962.00,-0.0002
1961.00,-0.0003
1960.00,-0.0003
1959.00,-0.0002
1958.00,-0.0002
1957.00,-0.0002
1956.00,-0.0002
1955.00,-0.0002
1954.00,-0.0002
1953.00,-0.0002
1952.00,-0.0002
1951.00,-0.0002
1950.00,-0.0002
1949.00,-0.0002
1948.00,-0.0002
1947.00,-0.0002
1946.00,-0.0002
1945.00,-0.0002
1944.00,-0.0002
1943.00,-0.0002
1942.00,-0.0002
1941.00,-0.0002
1940.00,-0.0002
1939.00,-0.0003
1938.00,-0.0002
1937.00,-0.0002
1936.00,-0.0002
1935.00,-0.0002
1934.00,-0.0002
1933.00,-0.0002
1932.00,-0.0002
1931.00,-0.0002
1930.00,-0.0002
1929.00,-0.0002
1928.00,-0.0002
1927.00,-0.0002
1926.00,-0.0002
1925.00,-0.0002
1924.00,-0.0002
1923.00,-0.0002
1922.00,-0.0002
1921.00,-0.0002
1920.00,-0.0002
1919.00,-0.0002
1918.00,-0.0002
1917.00,-0.0002
1916.00,-0.0002
1915.00,-0.0002
1914.00,-0.0002
1913.00,-0.0002
1912.00,-0.0002
1911.00,-0.0002
1910.00,-0.0002
1909.00,-0.0002
1908.00,-0.0002
1907.00,-0.0002
1906.00,-0.0002
1905.00,-0.0002
1904.00,-0.0002
1903.00,-0.0002
1902.00,-0.0002
1901.00,-0.0002
1900.00,-0.0002
1899.00,-0.0003
1898.00,-0.0003
1897.00,-0.0002
1896.00,-0.0002
1895.00,-0.0002
1894.00,-0.0002
1893.00,-0.0002
1892.00,-0.0002
1891.00,-0.0002
1890.00,-0.0002
1889.00,-0.0002
1888.00,-0.0002
1887.00,-0.0002
1886.00,-0.0002
1885.00,-0.0002
1884.00,-0.0002
1883.00,-0.0002
1882.00,-0.0002
1881.00,-0.0002
1880.00,-0.0002
1879.00,-0.0002
1878.00,-0.0002
1877.00,-0.0002
1876.00,-0.0002
1875.00,-0.0002
1874.00,-0.0002
1873.00,-0.0002
1872.00,-0.0002
1871.00,-0.0002
1870.00,-0.0002
1869.00,-0.0002
1868.00,-0.0002
1867.00,-0.0002
1866.00,-0.0002
1865.00,-0.0002
1864.00,-0.0002
1863.00,-0.0002
1862.00,-0.0002
1861.00,-0.0002
1860.00,-0.0002
1859.00,-0.0002
1858.00,-0.0002
1857.00,-0.0002
1856.00,-0.0002
1855.00,-0.0002
1854.00,-0.0002
1853.00,-0.0002
1852.00,-0.0002
1851.00,-0.0002
1850.00,-0.0002
1849.00,-0.0002
1848.00,-0.0002
1847.00,-0.0002
1846.00,-0.0002
1845.00,-0.0002
1844.00,-0.0002
1843.00,-0.0002
1842.00,-0.0002
1841.00,-0.0002
1840.00,-0.0002
1839.00,-0.0002
1838.00,-0.0002
1837.00,-0.0002
1836.00,-0.0002
1835.00,-0.0002
1834.00,-0.0002
1833.00,-0.0002
1832.00,-0.0002
1831.00,-0.0002
1830.00,-0.0002
1829.00,-0.0002
1828.00,-0.0002
1827.00,-0.0002
1826.00,-0.0002
1825.00,-0.0002
1824.00,-0.0002
1823.00,-0.0002
1822.00,-0.0002
1821.00,-0.0002
1820.00,-0.0002
1819.00,-0.0002
1818.00,-0.0002
1817.00,-0.0002
1816.00,-0.0002
1815.00,-0.0002
1814.00,-0.0002
1813.00,-0.0002
1812.00,-0.0002
1811.00,-0.0002
1810.00,-0.0002
1809.00,-0.0002
1808.00,-0.0002
1807.00,-0.0002
1806.00,-0.0002
1805.00,-0.0002
1804.00,-0.0002
1803.00,-0.0002
1802.00,-0.0002
1801.00,-0.0003
1800.00,-0.0003
1799.00,-0.0003
1798.00,-0.0003
1797.00,-0.0003
1796.00,-0.0003
1795.00,-0.0003
1794.00,-0.0003
1793.00,-0.0003
1792.00,-0.0003
1791.00,-0.0003
1790.00,-0.0003
1789.00,-0.0003
1788.00,-0.0003
1787.00,-0.0003
1786.00,-0.0003
1785.00,-0.0003
1784.00,-0.0003
1783.00,-0.0002
1782.00,-0.0002
1781.00,-0.0002
1780.00,-0.0002
1779.00,-0.0002
1778.00,-0.0002
1777.00,-0.0002
1776.00,-0.0002
1775.00,-0.0002
1774.00,-0.0002
1773.00,-0.0002
1772.00,-0.0002
1771.00,-0.0002
1770.00,-0.0003
1769.00,-0.0003
1768.00,-0.0003
1767.00,-0.0003
1766.00,-0.0003
1765.00,-0.0002
1764.00,-0.0002
1763.00,-0.0002
1762.00,-0.0002
1761.00,-0.0002
1760.00,-0.0002
1759.00,-0.0002
1758.00,-0.0002
1757.00,-0.0003
1756.00,-0.0003
1755.00,-0.0003
1754.00,-0.0003
1753.00,-0.0003
1752.00,-0.0004
1751.00,-0.0004
1750.00,-0.0003
1749.00,-0.0003
1748.00,-0.0003
1747.00,-0.0003
1746.00,-0.0003
1745.00,-0.0003
1744.00,-0.0003
1743.00,-0.0003
1742.00,-0.0003
1741.00,-0.0003
1740.00,-0.0003
1739.00,-0.0003
1738.00,-0.0002
1737.00,-0.0002
1736.00,-0.0002
1735.00,-0.0003
1734.00,-0.0003
1733.00,-0.0003
1732.00,-0.0003
1731.00,-0.0003
1730.00,-0.0003
1729.00,-0.0003
1728.00,-0.0002
1727.00,-0.0002
1726.00,-0.0002
1725.00,-0.0002
1724.00,-0.0003
1723.00,-0.0003
1722.00,-0.0003
1721.00,-0.0003
1720.00,-0.0003
1719.00,-0.0003
1718.00,-0.0003
1717.00,-0.0003
1716.00,-0.0003
1715.00,-0.0003
1714.00,-0.0003
1713.00,-0.0003
1712.00,-0.0003
1711.00,-0.0003
1710.00,-0.0003
1709.00,-0.0003
1708.00,-0.0003
1707.00,-0.0003
1706.00,-0.0003
1705.00,-0.0003
1704.00,-0.0002
1703.00,-0.0003
1702.00,-0.0003
1701.00,-0.0003
1700.00,-0.0003
1699.00,-0.0003
1698.00,-0.0003
1697.00,-0.0003
1696.00,-0.0003
1695.00,-0.0003
1694.00,-0.0003
1693.00,-0.0003
1692.00,-0.0003
1691.00,-0.0003
1690.00,-0.0003
1689.00,-0.0003
1688.00,-0.0003
1687.00,-0.0003
1686.00,-0.0003
1685.00,-0.0003
1684.00,-0.0003
1683.00,-0.0003
1682.00,-0.0003
1681.00,-0.0003
1680.00,-0.0003
1679.00,-0.0003
1678.00,-0.0003
1677.00,-0.0003
1676.00,-0.0003
1675.00,-0.0003
1674.00,-0.0003
1673.00,-0.0003
1672.00,-0.0003
1671.00,-0.0003
1670.00,-0.0003
1669.00,-0.0003
1668.00,-0.0003
1667.00,-0.0003
1666.00,-0.0003
1665.00,-0.0003
1664.00,-0.0003
1663.00,-0.0003
1662.00,-0.0003
1661.00,-0.0003
1660.00,-0.0003
1659.00,-0.0004
1658.00,-0.0003
1657.00,-0.0003
1656.00,-0.0003
1655.00,-0.0003
1654.00,-0.0003
1653.00,-0.0003
1652.00,-0.0003
1651.00,-0.0004
1650.00,-0.0004
1649.00,-0.0004
1648.00,-0.0004
1647.00,-0.0004
1646.00,-0.0004
1645.00,-0.0004
1644.00,-0.0004
1643.00,-0.0004
1642.00,-0.0004
1641.00,-0.0004
1640.00,-0.0003
1639.00,-0.0003
1638.00,-0.0004
1637.00,-0.0004
1636.00,-0.0004
1635.00,-0.0004
1634.00,-0.0004
1633.00,-0.0004
1632.00,-0.0004
1631.00,-0.0004
1630.00,-0.0004
1629.00,-0.0003
1628.00,-0.0003
1627.00,-0.0003
1626.00,-0.0003
1625.00,-0.0003
1624.00,-0.0003
1623.00,-0.0003
1622.00,-0.0003
1621.00,-0.0003
1620.00,-0.0003
1619.00,-0.0003
1618.00,-0.0003
1617.00,-0.0003
1616.00,-0.0003
1615.00,-0.0003
1614.00,-0.0003
1613.00,-0.0003
1612.00,-0.0003
1611.00,-0.0003
1610.00,-0.0003
1609.00,-0.0003
1608.00,-0.0003
1607.00,-0.0003
1606.00,-0.0003
1605.00,-0.0002
1604.00,-0.0002
1603.00,-0.0002
1602.00,-0.0002
1601.00,-0.0002
1600.00,-0.0003
1599.00,-0.0003
1598.00,-0.0003
1597.00,-0.0003
1596.00,-0.0003
1595.00,-0.0003
1594.00,-0.0003
1593.00,-0.0002
1592.00,-0.0002
1591.00,-0.0002
1590.00,-0.0002
1589.00,-0.0002
1588.00,-0.0003
1587.00,-0.0003
1586.00,-0.0003
1585.00,-0.0003
1584.00,-0.0003
1583.00,-0.0003
1582.00,-0.0003
1581.00,-0.0003
1580.00,-0.0003
1579.00,-0.0003
1578.00,-0.0003
1577.00,-0.0003
1576.00,-0.0003
1575.00,-0.0003
1574.00,-0.0003
1573.00,-0.0003
1572.00,-0.0003
1571.00,-0.0003
1570.00,-0.0003
1569.00,-0.0003
1568.00,-0.0003
1567.00,-0.0003
1566.00,-0.0003
1565.00,-0.0003
1564.00,-0.0003
1563.00,-0.0003
1562.00,-0.0003
1561.00,-0.0003
1560.00,-0.0003
1559.00,-0.0003
1558.00,-0.0003
1557.00,-0.0003
1556.00,-0.0003
1555.00,-0.0004
1554.00,-0.0003
1553.00,-0.0003
1552.00,-0.0003
1551.00,-0.0003
1550.00,-0.0003
1549.00,-0.0003
1548.00,-0.0003
1547.00,-0.0003
1546.00,-0.0003
1545.00,-0.0003
1544.00,-0.0003
1543.00,-0.0003
1542.00,-0.0003
1541.00,-0.0003
1540.00,-0.0003
1539.00,-0.0003
1538.00,-0.0003
1537.00,-0.0003
1536.00,-0.0003
1535.00,-0.0003
1534.00,-0.0003
1533.00,-0.0003
1532.00,-0.0003
1531.00,-0.0003
1530.00,-0.0003
1529.00,-0.0003
1528.00,-0.0003
1527.00,-0.0003
1526.00,-0.0003
1525.00,-0.0003
1524.00,-0.0003
1523.00,-0.0003
1522.00,-0.0003
1521.00,-0.0003
1520.00,-0.0003
1519.00,-0.0003
1518.00,-0.0003
1517.00,-0.0003
1516.00,-0.0003
1515.00,-0.0003
1514.00,-0.0003
1513.00,-0.0003
1512.00,-0.0003
1511.00,-0.0003
1510.00,-0.0003
1509.00,-0.0003
1508.00,-0.0003
1507.00,-0.0003
1506.00,-0.0004
1505.00,-0.0004
1504.00,-0.0004
1503.00,-0.0003
1502.00,-0.0003
1501.00,-0.0003
1500.00,-0.0003
1499.00,-0.0003
1498.00,-0.0003
1497.00,-0.0003
1496.00,-0.0003
1495.00,-0.0002
1494.00,-0.0002
1493.00,-0.0003
1492.00,-0.0003
1491.00,-0.0003
1490.00,-0.0003
1489.00,-0.0003
1488.00,-0.0003
1487.00,-0.0003
1486.00,-0.0003
1485.00,-0.0002
1484.00,-0.0002
1483.00,-0.0002
1482.00,-0.0003
1481.00,-0.0003
1480.00,-0.0003
1479.00,-0.0003
1478.00,-0.0003
1477.00,-0.0003
1476.00,-0.0003
1475.00,-0.0003
1474.00,-0.0003
1473.00,-0.0003
1472.00,-0.0003
1471.00,-0.0003
1470.00,-0.0003
1469.00,-0.0003
1468.00,-0.0003
1467.00,-0.0003
1466.00,-0.0002
1465.00,-0.0003
1464.00,-0.0003
1463.00,-0.0003
1462.00,-0.0003
1461.00,-0.0003
1460.00,-0.0002
1459.00,-0.0002
1458.00,-0.0002
1457.00,-0.0003
1456.00,-0.0003
1455.00,-0.0003
1454.00,-0.0003
1453.00,-0.0003
1452.00,-0.0003
1451.00,-0.0003
1450.00,-0.0003
1449.00,-0.0002
1448.00,-0.0002
1447.00,-0.0002
1446.00,-0.0002
1445.00,-0.0002
1444.00,-0.0002
1443.00,-0.0002
1442.00,-0.0002
1441.00,-0.0002
1440.00,-0.0002
1439.00,-0.0002
1438.00,-0.0002
1437.00,-0.0003
1436.00,-0.0003
1435.00,-0.0002
1434.00,-0.0002
1433.00,-0.0003
1432.00,-0.0003
1431.00,-0.0002
1430.00,-0.0003
1429.00,-0.0003
1428.00,-0.0003
1427.00,-0.0002
1426.00,-0.0002
1425.00,-0.0002
1424.00,-0.0003
1423.00,-0.0003
1422.00,-0.0003
1421.00,-0.0003
1420.00,-0.0003
1419.00,-0.0003
1418.00,-0.0003
1417.00,-0.0003
1416.00,-0.0003
1415.00,-0.0003
1414.00,-0.0002
1413.00,-0.0002
1412.00,-0.0002
1411.00,-0.0002
1410.00,-0.0002
1409.00,-0.0002
1408.00,-0.0002
1407.00,-0.0002
1406.00,-0.0002
1405.00,-0.0002
1404.00,-0.0002
1403.00,-0.0002
1402.00,-0.0002
1401.00,-0.0002
1400.00,-0.0002
1399.00,-0.0002
1398.00,-0.0002
1397.00,-0.0003
1396.00,-0.0003
1395.00,-0.0003
1394.00,-0.0003
1393.00,-0.0003
1392.00,-0.0003
1391.00,-0.0002
1390.00,-0.0002
1389.00,-0.0002
1388.00,-0.0002
1387.00,-0.0002
1386.00,-0.0002
1385.00,-0.0002
1384.00,-0.0002
1383.00,-0.0002
1382.00,-0.0002
1381.00,-0.0002
1380.00,-0.0002
1379.00,-0.0002
1378.00,-0.0002
1377.00,-0.0002
1376.00,-0.0002
1375.00,-0.0002
1374.00,-0.0002
1373.00,-0.0002
1372.00,-0.0002
1371.00,-0.0002
1370.00,-0.0002
1369.00,-0.0002
1368.00,-0.0002
1367.00,-0.0002
1366.00,-0.0002
1365.00,-0.0002
1364.00,-0.0002
1363.00,-0.0002
1362.00,-0.0002
1361.00,-0.0002
1360.00,-0.0002
1359.00,-0.0003
1358.00,-0.0003
1357.00,-0.0002
1356.00,-0.0002
1355.00,-0.0002
1354.00,-0.0002
1353.00,-0.0002
1352.00,-0.0002
1351.00,-0.0002
1350.00,-0.0002
1349.00,-0.0002
1348.00,-0.0002
1347.00,-0.0002
1346.00,-0.0002
1345.00,-0.0002
1344.00,-0.0002
1343.00,-0.0002
1342.00,-0.0003
1341.00,-0.0003
1340.00,-0.0003
1339.00,-0.0003
1338.00,-0.0003
1337.00,-0.0003
1336.00,-0.0003
1335.00,-0.0002
1334.00,-0.0002
1333.00,-0.0002
1332.00,-0.0002
1331.00,-0.0002
1330.00,-0.0002
1329.00,-0.0002
1328.00,-0.0002
1327.00,-0.0002
1326.00,-0.0002
1325.00,-0.0002
1324.00,-0.0002
1323.00,-0.0002
1322.00,-0.0002
1321.00,-0.0002
1320.00,-0.0002
1319.00,-0.0002
1318.00,-0.0002
1317.00,-0.0002
1316.00,-0.0003
1315.00,-0.0003
1314.00,-0.0002
1313.00,-0.0002
1312.00,-0.0003
1311.00,-0.0003
1310.00,-0.0003
1309.00,-0.0002
1308.00,-0.0002
1307.00,-0.0003
1306.00,-0.0003
1305.00,-0.0003
1304.00,-0.0002
1303.00,-0.0002
1302.00,-0.0002
1301.00,-0.0002
1300.00,-0.0002
1299.00,-0.0002
1298.00,-0.0002
1297.00,-0.0002
1296.00,-0.0003
1295.00,-0.0003
1294.00,-0.0003
1293.00,-0.0003
1292.00,-0.0002
1291.00,-0.0002
1290.00,-0.0002
1289.00,-0.0002
1288.00,-0.0002
1287.00,-0.0002
1286.00,-0.0002
1285.00,-0.0002
1284.00,-0.0002
1283.00,-0.0002
1282.00,-0.0002
1281.00,-0.0002
1280.00,-0.0002
1279.00,-0.0002
1278.00,-0.0002
1277.00,-0.0002
1276.00,-0.0002
1275.00,-0.0002
1274.00,-0.0002
1273.00,-0.0002
1272.00,-0.0002
1271.00,-0.0002
1270.00,-0.0002
1269.00,-0.0002
1268.00,-0.0002
1267.00,-0.0002
1266.00,-0.0002
1265.00,-0.0002
1264.00,-0.0002
1263.00,-0.0002
1262.00,-0.0002
1261.00,-0.0002
1260.00,-0.0002
1259.00,-0.0002
1258.00,-0.0002
1257.00,-0.0002
1256.00,-0.0002
1255.00,-0.0002
1254.00,-0.0002
1253.00,-0.0002
1252.00,-0.0002
1251.00,-0.0002
1250.00,-0.0002
1249.00,-0.0002
1248.00,-0.0002
1247.00,-0.0002
1246.00,-0.0002
1245.00,-0.0002
1244.00,-0.0002
1243.00,-0.0002
1242.00,-0.0002
1241.00,-0.0002
1240.00,-0.0002
1239.00,-0.0002
1238.00,-0.0002
1237.00,-0.0002
1236.00,-0.0002
1235.00,-0.0002
1234.00,-0.0002
1233.00,-0.0002
1232.00,-0.0002
1231.00,-0.0002
1230.00,-0.0002
1229.00,-0.0002
1228.00,-0.0002
1227.00,-0.0002
1226.00,-0.0002
1225.00,-0.0002
1224.00,-0.0002
1223.00,-0.0002
1222.00,-0.0002
1221.00,-0.0002
1220.00,-0.0002
1219.00,-0.0002
1218.00,-0.0002
1217.00,-0.0002
1216.00,-0.0002
1215.00,-0.0002
1214.00,-0.0002
1213.00,-0.0002
1212.00,-0.0002
1211.00,-0.0002
1210.00,-0.0002
1209.00,-0.0002
1208.00,-0.0002
1207.00,-0.0002
1206.00,-0.0002
1205.00,-0.0002
1204.00,-0.0002
1203.00,-0.0002
1202.00,-0.0002
1201.00,-0.0002
1200.00,-0.0002
1199.00,-0.0002
1198.00,-0.0002
1197.00,-0.0002
1196.00,-0.0002
1195.00,-0.0002
1194.00,-0.0002
1193.00,-0.0002
1192.00,-0.0002
1191.00,-0.0002
1190.00,-0.0002
1189.00,-0.0002
1188.00,-0.0002
1187.00,-0.0002
1186.00,-0.0002
1185.00,-0.0002
1184.00,-0.0002
1183.00,-0.0002
1182.00,-0.0002
1181.00,-0.0002
1180.00,-0.0002
1179.00,-0.0002
1178.00,-0.0002
1177.00,-0.0002
1176.00,-0.0002
1175.00,-0.0002
1174.00,-0.0002
1173.00,-0.0002
1172.00,-0.0002
1171.00,-0.0002
1170.00,-0.0002
1169.00,-0.0002
1168.00,-0.0002
1167.00,-0.0002
1166.00,-0.0002
1165.00,-0.0002
1164.00,-0.0002
1163.00,-0.0002
1162.00,-0.0002
1161.00,-0.0002
1160.00,-0.0002
1159.00,-0.0002
1158.00,-0.0002
1157.00,-0.0002
1156.00,-0.0002
1155.00,-0.0002
1154.00,-0.0002
1153.00,-0.0002
1152.00,-0.0002
1151.00,-0.0002
1150.00,-0.0002
1149.00,-0.0002
1148.00,-0.0002
1147.00,-0.0002
1146.00,-0.0002
1145.00,-0.0002
1144.00,-0.0002
1143.00,-0.0002
1142.00,-0.0002
1141.00,-0.0002
1140.00,-0.0002
1139.00,-0.0002
1138.00,-0.0002
1137.00,-0.0002
1136.00,-0.0002
1135.00,-0.0002
1134.00,-0.0002
1133.00,-0.0002
1132.00,-0.0002
1131.00,-0.0002
1130.00,-0.0002
1129.00,-0.0002
1128.00,-0.0002
1127.00,-0.0002
1126.00,-0.0002
1125.00,-0.0003
1124.00,-0.0003
1123.00,-0.0002
1122.00,-0.0002
1121.00,-0.0002
1120.00,-0.0002
1119.00,-0.0002
1118.00,-0.0002
1117.00,-0.0002
1116.00,-0.0002
1115.00,-0.0002
1114.00,-0.0002
1113.00,-0.0002
1112.00,-0.0002
1111.00,-0.0002
1110.00,-0.0002
1109.00,-0.0002
1108.00,-0.0002
1107.00,-0.0002
1106.00,-0.0002
1105.00,-0.0002
1104.00,-0.0002
1103.00,-0.0002
1102.00,-0.0002
1101.00,-0.0002
1100.00,-0.0002
1099.00,-0.0003
1098.00,-0.0003
1097.00,-0.0003
1096.00,-0.0002
1095.00,-0.0002
1094.00,-0.0002
1093.00,-0.0002
1092.00,-0.0002
1091.00,-0.0002
1090.00,-0.0002
1089.00,-0.0002
1088.00,-0.0002
1087.00,-0.0002
1086.00,-0.0002
1085.00,-0.0002
1084.00,-0.0002
1083.00,-0.0002
1082.00,-0.0002
1081.00,-0.0002
1080.00,-0.0003
1079.00,-0.0002
1078.00,-0.0002
1077.00,-0.0002
1076.00,-0.0002
1075.00,-0.0002
1074.00,-0.0002
1073.00,-0.0002
1072.00,-0.0002
1071.00,-0.0002
1070.00,-0.0002
1069.00,-0.0003
1068.00,-0.0003
1067.00,-0.0003
1066.00,-0.0003
1065.00,-0.0002
1064.00,-0.0002
1063.00,-0.0002
1062.00,-0.0002
1061.00,-0.0002
1060.00,-0.0002
1059.00,-0.0002
1058.00,-0.0002
1057.00,-0.0002
1056.00,-0.0002
1055.00,-0.0002
1054.00,-0.0002
1053.00,-0.0002
1052.00,-0.0002
1051.00,-0.0002
1050.00,-0.0002
1049.00,-0.0002
1048.00,-0.0002
1047.00,-0.0002
1046.00,-0.0002
1045.00,-0.0002
1044.00,-0.0002
1043.00,-0.0002
1042.00,-0.0002
1041.00,-0.0002
1040.00,-0.0002
1039.00,-0.0002
1038.00,-0.0002
1037.00,-0.0002
1036.00,-0.0002
1035.00,-0.0002
1034.00,-0.0002
1033.00,-0.0002
1032.00,-0.0002
1031.00,-0.0002
1030.00,-0.0002
1029.00,-0.0002
1028.00,-0.0002
1027.00,-0.0002
1026.00,-0.0002
1025.00,-0.0002
1024.00,-0.0002
1023.00,-0.0002
1022.00,-0.0002
1021.00,-0.0002
1020.00,-0.0002
1019.00,-0.0002
1018.00,-0.0002
1017.00,-0.0002
1016.00,-0.0002
1015.00,-0.0001
1014.00,-0.0001
1013.00,-0.0002
1012.00,-0.0002
1011.00,-0.0002
1010.00,-0.0002
1009.00,-0.0002
1008.00,-0.0002
1007.00,-0.0002
1006.00,-0.0002
1005.00,-0.0002
1004.00,-0.0002
1003.00,-0.0002
1002.00,-0.0002
1001.00,-0.0002
1000.00,-0.0002
999.00,-0.0002
998.00,-0.0002
997.00,-0.0002
996.00,-0.0002
995.00,-0.0002
994.00,-0.0002
993.00,-0.0002
992.00,-0.0002
991.00,-0.0002
990.00,-0.0002
989.00,-0.0002
988.00,-0.0002
987.00,-0.0002
986.00,-0.0002
985.00,-0.0002
984.00,-0.0002
983.00,-0.0002
982.00,-0.0003
981.00,-0.0003
980.00,-0.0003
979.00,-0.0002
978.00,-0.0002
977.00,-0.0002
976.00,-0.0002
975.00,-0.0002
974.00,-0.0002
973.00,-0.0002
972.00,-0.0002
971.00,-0.0002
970.00,-0.0002
969.00,-0.0002
968.00,-0.0002
967.00,-0.0002
966.00,-0.0002
965.00,-0.0003
964.00,-0.0003
963.00,-0.0003
962.00,-0.0002
961.00,-0.0002
960.00,-0.0002
959.00,-0.0002
958.00,-0.0002
957.00,-0.0002
956.00,-0.0002
955.00,-0.0002
954.00,-0.0001
953.00,-0.0001
952.00,-0.0002
951.00,-0.0002
950.00,-0.0002
949.00,-0.0002
948.00,-0.0002
947.00,-0.0002
946.00,-0.0002
945.00,-0.0002
944.00,-0.0002
943.00,-0.0002
942.00,-0.0002
941.00,-0.0002
940.00,-0.0002
939.00,-0.0002
938.00,-0.0002
937.00,-0.0002
936.00,-0.0002
935.00,-0.0002
934.00,-0.0002
933.00,-0.0002
932.00,-0.0003
931.00,-0.0003
930.00,-0.0002
929.00,-0.0002
928.00,-0.0002
927.00,-0.0003
926.00,-0.0003
925.00,-0.0003
924.00,-0.0002
923.00,-0.0002
922.00,-0.0002
921.00,-0.0002
920.00,-0.0002
919.00,-0.0002
918.00,-0.0002
917.00,-0.0002
916.00,-0.0002
915.00,-0.0002
914.00,-0.0002
913.00,-0.0002
912.00,-0.0002
911.00,-0.0002
910.00,-0.0002
909.00,-0.0002
908.00,-0.0002
907.00,-0.0002
906.00,-0.0001
905.00,-0.0001
904.00,-0.0002
903.00,-0.0002
902.00,-0.0003
901.00,-0.0003
900.00,-0.0003
899.00,-0.0003
898.00,-0.0003
897.00,-0.0003
896.00,-0.0003
895.00,-0.0003
894.00,-0.0003
893.00,-0.0003
892.00,-0.0002
891.00,-0.0002
890.00,-0.0002
889.00,-0.0002
888.00,-0.0003
887.00,-0.0003
886.00,-0.0002
885.00,-0.0002
884.00,-0.0002
883.00,-0.0002
882.00,-0.0002
881.00,-0.0003
880.00,-0.0003
879.00,-0.0002
878.00,-0.0002
877.00,-0.0002
876.00,-0.0002
875.00,-0.0002
874.00,-0.0002
873.00,-0.0002
872.00,-0.0002
871.00,-0.0002
870.00,-0.0002
869.00,-0.0002
868.00,-0.0002
867.00,-0.0002
866.00,-0.0002
865.00,-0.0002
864.00,-0.0002
863.00,-0.0002
862.00,-0.0003
861.00,-0.0003
860.00,-0.0003
859.00,-0.0003
858.00,-0.0003
857.00,-0.0003
856.00,-0.0003
855.00,-0.0002
854.00,-0.0002
853.00,-0.0003
852.00,-0.0003
851.00,-0.0003
850.00,-0.0003
849.00,-0.0002
848.00,-0.0002
847.00,-0.0002
846.00,-0.0002
845.00,-0.0003
844.00,-0.0003
843.00,-0.0003
842.00,-0.0002
841.00,-0.0002
840.00,-0.0002
839.00,-0.0002
838.00,-0.0002
837.00,-0.0002
836.00,-0.0002
835.00,-0.0002
834.00,-0.0002
833.00,-0.0002
832.00,-0.0003
831.00,-0.0003
830.00,-0.0003
829.00,-0.0003
828.00,-0.0003
827.00,-0.0003
826.00,-0.0003
825.00,-0.0003
824.00,-0.0002
823.00,-0.0002
822.00,-0.0002
821.00,-0.0003
820.00,-0.0003
819.00,-0.0003
818.00,-0.0003
817.00,-0.0003
816.00,-0.0003
815.00,-0.0003
814.00,-0.0003
813.00,-0.0003
812.00,-0.0003
811.00,-0.0003
810.00,-0.0003
809.00,-0.0003
808.00,-0.0002
807.00,-0.0002
806.00,-0.0002
805.00,-0.0002
804.00,-0.0002
803.00,-0.0002
802.00,-0.0002
801.00,-0.0003
800.00,-0.0003
799.00,-0.0003
798.00,-0.0003
797.00,-0.0003
796.00,-0.0003
795.00,-0.0003
794.00,-0.0003
793.00,-0.0003
792.00,-0.0002
791.00,-0.0002
790.00,-0.0002
789.00,-0.0002
788.00,-0.0002
787.00,-0.0002
786.00,-0.0002
785.00,-0.0002
784.00,-0.0002
783.00,-0.0002
782.00,-0.0002
781.00,-0.0002
780.00,-0.0003
779.00,-0.0002
778.00,-0.0002
777.00,-0.0002
776.00,-0.0002
775.00,-0.0002
774.00,-0.0002
773.00,-0.0002
772.00,-0.0003
771.00,-0.0003
770.00,-0.0003
769.00,-0.0003
768.00,-0.0003
767.00,-0.0002
766.00,-0.0002
765.00,-0.0002
764.00,-0.0002
763.00,-0.0003
762.00,-0.0003
761.00,-0.0003
760.00,-0.0002
759.00,-0.0002
758.00,-0.0003
757.00,-0.0003
756.00,-0.0003
755.00,-0.0003
754.00,-0.0003
753.00,-0.0003
752.00,-0.0003
751.00,-0.0003
750.00,-0.0003
749.00,-0.0002
748.00,-0.0002
747.00,-0.0003
746.00,-0.0003
745.00,-0.0003
744.00,-0.0003
743.00,-0.0003
742.00,-0.0003
741.00,-0.0003
740.00,-0.0003
739.00,-0.0003
738.00,-0.0003
737.00,-0.0003
736.00,-0.0003
735.00,-0.0003
734.00,-0.0002
733.00,-0.0002
732.00,-0.0002
731.00,-0.0002
730.00,-0.0002
729.00,-0.0002
728.00,-0.0002
727.00,-0.0002
726.00,-0.0003
725.00,-0.0003
724.00,-0.0003
723.00,-0.0003
722.00,-0.0003
721.00,-0.0003
720.00,-0.0003
719.00,-0.0003
718.00,-0.0003
717.00,-0.0003
716.00,-0.0003
715.00,-0.0002
714.00,-0.0002
713.00,-0.0003
712.00,-0.0003
711.00,-0.0003
710.00,-0.0002
709.00,-0.0002
708.00,-0.0002
707.00,-0.0002
706.00,-0.0002
705.00,-0.0002
704.00,-0.0003
703.00,-0.0003
702.00,-0.0004
701.00,-0.0004
700.00,-0.0004
699.00,-0.0004
698.00,-0.0003
697.00,-0.0003
696.00,-0.0003
695.00,-0.0003
694.00,-0.0003
693.00,-0.0003
692.00,-0.0003
691.00,-0.0003
690.00,-0.0004
689.00,-0.0004
688.00,-0.0004
687.00,-0.0004
686.00,-0.0004
685.00,-0.0003
684.00,-0.0003
683.00,-0.0002
682.00,-0.0002
681.00,-0.0003
680.00,-0.0003
679.00,-0.0004
678.00,-0.0004
677.00,-0.0005
676.00,-0.0005
675.00,-0.0004
674.00,-0.0004
673.00,-0.0004
672.00,-0.0005
671.00,-0.0007
670.00,-0.0010
669.00,-0.0014
668.00,-0.0017
667.00,-0.0015
666.00,-0.0011
665.00,-0.0007
664.00,-0.0005
663.00,-0.0003
662.00,-0.0003
661.00,-0.0003
660.00,-0.0004
659.00,-0.0004
658.00,-0.0005
657.00,-0.0005
656.00,-0.0005
655.00,-0.0004
654.00,-0.0004
653.00,-0.0004
652.00,-0.0004
651.00,-0.0004
650.00,-0.0004
649.00,-0.0004
648.00,-0.0004
647.00,-0.0004
646.00,-0.0003
645.00,-0.0003
644.00,-0.0003
643.00,-0.0003
642.00,-0.0004
641.00,-0.0004
640.00,-0.0003
639.00,-0.0003
638.00,-0.0002
637.00,-0.0002
636.00,-0.0003
635.00,-0.0003
634.00,-0.0003
633.00,-0.0003
632.00,-0.0003
631.00,-0.0002
630.00,-0.0001
629.00,-0.0001
628.00,-0.0002
627.00,-0.0003
626.00,-0.0004
625.00,-0.0004
624.00,-0.0004
623.00,-0.0004
622.00,-0.0004
621.00,-0.0004
620.00,-0.0004
619.00,-0.0004
618.00,-0.0004
617.00,-0.0003
616.00,-0.0003
615.00,-0.0004
614.00,-0.0004
613.00,-0.0005
612.00,-0.0004
611.00,-0.0004
610.00,-0.0004
609.00,-0.0003
608.00,-0.0003
607.00,-0.0003
606.00,-0.0003
605.00,-0.0003
604.00,-0.0003
603.00,-0.0003
602.00,-0.0003
601.00,-0.0002
600.00,-0.0002
599.00,-0.0003
598.00,-0.0003
597.00,-0.0003
596.00,-0.0003
595.00,-0.0003
594.00,-0.0004
593.00,-0.0006
592.00,-0.0007
591.00,-0.0008
590.00,-0.0007
589.00,-0.0005
588.00,-0.0003
587.00,-0.0003
586.00,-0.0003
585.00,-0.0004
584.00,-0.0004
583.00,-0.0003
582.00,-0.0003
581.00,-0.0002
580.00,-0.0002
579.00,-0.0002
578.00,-0.0002
577.00,-0.0002
576.00,-0.0003
575.00,-0.0003
574.00,-0.0003
573.00,-0.0003
572.00,-0.0003
571.00,-0.0004
570.00,-0.0005
569.00,-0.0006
568.00,-0.0007
567.00,-0.0007
566.00,-0.0006
565.00,-0.0006
564.00,-0.0004
563.00,-0.0003
562.00,-0.0002
561.00,-0.0002
560.00,-0.0004
559.00,-0.0005
558.00,-0.0006
557.00,-0.0005
556.00,-0.0003
555.00,-0.0001
554.00,-0.0001
553.00,-0.0001
552.00,-0.0001
551.00,-0.0001
550.00,-0.0001
549.00,-0.0002
548.00,-0.0002
547.00,-0.0003
546.00,-0.0003
545.00,-0.0004
544.00,-0.0003
543.00,-0.0003
542.00,-0.0002
541.00,-0.0001
540.00,-0.0002
539.00,-0.0003
538.00,-0.0004
537.00,-0.0005
536.00,-0.0005
535.00,-0.0004
534.00,-0.0003
533.00,-0.0002
532.00,-0.0002
531.00,-0.0003
530.00,-0.0004
529.00,-0.0005
528.00,-0.0005
527.00,-0.0004
526.00,-0.0003
525.00,-0.0002
524.00,-0.0003
523.00,-0.0003
522.00,-0.0004
521.00,-0.0004
520.00,-0.0004
519.00,-0.0004
518.00,-0.0003
517.00,-0.0003
516.00,-0.0004
515.00,-0.0005
514.00,-0.0005
513.00,-0.0006
512.00,-0.0006
511.00,-0.0006
510.00,-0.0006
509.00,-0.0007
508.00,-0.0007
507.00,-0.0006
506.00,-0.0006
505.00,-0.0006
504.00,-0.0007
503.00,-0.0007
502.00,-0.0007
501.00,-0.0006
500.00,-0.0006
