Created as New Dataset,Sample 027 By Analyst Date Wednesday, April 02 2025
cm-1,A
4000.00,-0.1003
3998.00,-0.1003
3996.00,-0.1003
3994.00,-0.1003
3992.00,-0.1003
3990.00,-0.1003
3988.00,-0.1003
3986.00,-0.1002
3984.00,-0.1002
3982.00,-0.1002
3980.00,-0.1002
3978.00,-0.1001
3976.00,-0.1000
3974.00,-0.1000
3972.00,-0.1000
3970.00,-0.0999
3968.00,-0.0999
3966.00,-0.1000
3964.00,-0.0999
3962.00,-0.0999
3960.00,-0.1000
3958.00,-0.1000
3956.00,-0.1000
3954.00,-0.0999
3952.00,-0.0999
3950.00,-0.0998
3948.00,-0.0997
3946.00,-0.0997
3944.00,-0.0996
3942.00,-0.0996
3940.00,-0.0997
3938.00,-0.0997
3936.00,-0.0997
3934.00,-0.0996
3932.00,-0.0996
3930.00,-0.0996
3928.00,-0.0995
3926.00,-0.0995
3924.00,-0.0995
3922.00,-0.0994
3920.00,-0.0994
3918.00,-0.0993
3916.00,-0.0993
3914.00,-0.0994
3912.00,-0.0994
3910.00,-0.0994
3908.00,-0.0993
3906.00,-0.0991
3904.00,-0.0989
3902.00,-0.0987
3900.00,-0.0988
3898.00,-0.0989
3896.00,-0.0990
3894.00,-0.0992
3892.00,-0.0993
3890.00,-0.0992
3888.00,-0.0992
3886.00,-0.0991
3884.00,-0.0989
3882.00,-0.0990
3880.00,-0.0989
3878.00,-0.0990
3876.00,-0.0991
3874.00,-0.0990
3872.00,-0.0990
3870.00,-0.0990
3868.00,-0.0989
3866.00,-0.0990
3864.00,-0.0990
3862.00,-0.0990
3860.00,-0.0991
3858.00,-0.0990
3856.00,-0.0990
3854.00,-0.0991
3852.00,-0.0989
3850.00,-0.0990
3848.00,-0.0989
3846.00,-0.0989
3844.00,-0.0990
3842.00,-0.0988
3840.00,-0.0988
3838.00,-0.0988
3836.00,-0.0988
3834.00,-0.0989
3832.00,-0.0989
3830.00,-0.0989
3828.00,-0.0990
3826.00,-0.0989
3824.00,-0.0988
3822.00,-0.0987
3820.00,-0.0985
3818.00,-0.0986
3816.00,-0.0987
3814.00,-0.0986
3812.00,-0.0988
3810.00,-0.0987
3808.00,-0.0988
3806.00,-0.0988
3804.00,-0.0987
3802.00,-0.0988
3800.00,-0.0986
3798.00,-0.0987
3796.00,-0.0986
3794.00,-0.0987
3792.00,-0.0988
3790.00,-0.0988
3788.00,-0.0988
3786.00,-0.0987
3784.00,-0.0987
3782.00,-0.0987
3780.00,-0.0987
3778.00,-0.0987
3776.00,-0.0988
3774.00,-0.0988
3772.00,-0.0988
3770.00,-0.0988
3768.00,-0.0987
3766.00,-0.0987
3764.00,-0.0987
3762.00,-0.0987
3760.00,-0.0986
3758.00,-0.0985
3756.00,-0.0984
3754.00,-0.0983
3752.00,-0.0982
3750.00,-0.0982
3748.00,-0.0979
3746.00,-0.0979
3744.00,-0.0978
3742.00,-0.0978
3740.00,-0.0979
3738.00,-0.0976
3736.00,-0.0975
3734.00,-0.0976
3732.00,-0.0977
3730.00,-0.0977
3728.00,-0.0978
3726.00,-0.0977
3724.00,-0.0977
3722.00,-0.0977
3720.00,-0.0977
3718.00,-0.0978
3716.00,-0.0978
3714.00,-0.0979
3712.00,-0.0979
3710.00,-0.0980
3708.00,-0.0982
3706.00,-0.0983
3704.00,-0.0984
3702.00,-0.0985
3700.00,-0.0986
3698.00,-0.0987
3696.00,-0.0988
3694.00,-0.0988
3692.00,-0.0988
3690.00,-0.0989
3688.00,-0.0990
3686.00,-0.0991
3684.00,-0.0992
3682.00,-0.0993
3680.00,-0.0993
3678.00,-0.0993
3676.00,-0.0993
3674.00,-0.0990
3672.00,-0.0991
3670.00,-0.0991
3668.00,-0.0991
3666.00,-0.0993
3664.00,-0.0993
3662.00,-0.0994
3660.00,-0.0993
3658.00,-0.0993
3656.00,-0.0991
3654.00,-0.0989
3652.00,-0.0987
3650.00,-0.0985
3648.00,-0.0984
3646.00,-0.0984
3644.00,-0.0986
3642.00,-0.0988
3640.00,-0.0989
3638.00,-0.0990
3636.00,-0.0989
3634.00,-0.0988
3632.00,-0.0986
3630.00,-0.0985
3628.00,-0.0984
3626.00,-0.0985
3624.00,-0.0986
3622.00,-0.0986
3620.00,-0.0987
3618.00,-0.0986
3616.00,-0.0986
3614.00,-0.0985
3612.00,-0.0986
3610.00,-0.0986
3608.00,-0.0987
3606.00,-0.0987
3604.00,-0.0989
3602.00,-0.0990
3600.00,-0.0990
3598.00,-0.0989
3596.00,-0.0989
3594.00,-0.0988
3592.00,-0.0988
3590.00,-0.0987
3588.00,-0.0986
3586.00,-0.0987
3584.00,-0.0988
3582.00,-0.0990
3580.00,-0.0992
3578.00,-0.0993
3576.00,-0.0994
3574.00,-0.0994
3572.00,-0.0993
3570.00,-0.0990
3568.00,-0.0988
3566.00,-0.0987
3564.00,-0.0988
3562.00,-0.0990
3560.00,-0.0993
3558.00,-0.0995
3556.00,-0.0995
3554.00,-0.0996
3552.00,-0.0995
3550.00,-0.0995
3548.00,-0.0994
3546.00,-0.0993
3544.00,-0.0993
3542.00,-0.0994
3540.00,-0.0994
3538.00,-0.0994
3536.00,-0.0994
3534.00,-0.0994
3532.00,-0.0994
3530.00,-0.0994
3528.00,-0.0993
3526.00,-0.0993
3524.00,-0.0993
3522.00,-0.0993
3520.00,-0.0994
3518.00,-0.0995
3516.00,-0.0995
3514.00,-0.0995
3512.00,-0.0994
3510.00,-0.0994
3508.00,-0.0993
3506.00,-0.0993
3504.00,-0.0992
3502.00,-0.0992
3500.00,-0.0992
3498.00,-0.0993
3496.00,-0.0994
3494.00,-0.0995
3492.00,-0.0995
3490.00,-0.0996
3488.00,-0.0996
3486.00,-0.0996
3484.00,-0.0996
3482.00,-0.0996
3480.00,-0.0996
3478.00,-0.0996
3476.00,-0.0997
3474.00,-0.0997
3472.00,-0.0997
3470.00,-0.0997
3468.00,-0.0997
3466.00,-0.0998
3464.00,-0.0998
3462.00,-0.0999
3460.00,-0.0999
3458.00,-0.1000
3456.00,-0.1001
3454.00,-0.1001
3452.00,-0.1001
3450.00,-0.1001
3448.00,-0.1001
3446.00,-0.1001
3444.00,-0.1001
3442.00,-0.1001
3440.00,-0.1002
3438.00,-0.1002
3436.00,-0.1002
3434.00,-0.1003
3432.00,-0.1003
3430.00,-0.1004
3428.00,-0.1004
3426.00,-0.1004
3424.00,-0.1004
3422.00,-0.1003
3420.00,-0.1003
3418.00,-0.1002
3416.00,-0.1002
3414.00,-0.1001
3412.00,-0.1000
3410.00,-0.0999
3408.00,-0.0998
3406.00,-0.0998
3404.00,-0.0997
3402.00,-0.0996
3400.00,-0.0996
3398.00,-0.0995
3396.00,-0.0995
3394.00,-0.0994
3392.00,-0.0994
3390.00,-0.0994
3388.00,-0.0993
3386.00,-0.0993
3384.00,-0.0992
3382.00,-0.0992
3380.00,-0.0991
3378.00,-0.0991
3376.00,-0.0990
3374.00,-0.0990
3372.00,-0.0990
3370.00,-0.0990
3368.00,-0.0990
3366.00,-0.0990
3364.00,-0.0990
3362.00,-0.0990
3360.00,-0.0990
3358.00,-0.0989
3356.00,-0.0989
3354.00,-0.0989
3352.00,-0.0989
3350.00,-0.0989
3348.00,-0.0989
3346.00,-0.0989
3344.00,-0.0989
3342.00,-0.0990
3340.00,-0.0990
3338.00,-0.0990
3336.00,-0.0990
3334.00,-0.0991
3332.00,-0.0992
3330.00,-0.0992
3328.00,-0.0992
3326.00,-0.0992
3324.00,-0.0992
3322.00,-0.0992
3320.00,-0.0992
3318.00,-0.0993
3316.00,-0.0993
3314.00,-0.0993
3312.00,-0.0994
3310.00,-0.0995
3308.00,-0.0996
3306.00,-0.0997
3304.00,-0.0999
3302.00,-0.0999
3300.00,-0.1000
3298.00,-0.0999
3296.00,-0.0997
3294.00,-0.0996
3292.00,-0.0995
3290.00,-0.0994
3288.00,-0.0992
3286.00,-0.0991
3284.00,-0.0990
3282.00,-0.0989
3280.00,-0.0989
3278.00,-0.0988
3276.00,-0.0988
3274.00,-0.0988
3272.00,-0.0987
3270.00,-0.0987
3268.00,-0.0987
3266.00,-0.0987
3264.00,-0.0987
3262.00,-0.0987
3260.00,-0.0987
3258.00,-0.0986
3256.00,-0.0986
3254.00,-0.0986
3252.00,-0.0986
3250.00,-0.0986
3248.00,-0.0986
3246.00,-0.0986
3244.00,-0.0987
3242.00,-0.0987
3240.00,-0.0988
3238.00,-0.0988
3236.00,-0.0988
3234.00,-0.0988
3232.00,-0.0989
3230.00,-0.0989
3228.00,-0.0989
3226.00,-0.0989
3224.00,-0.0989
3222.00,-0.0989
3220.00,-0.0989
3218.00,-0.0990
3216.00,-0.0990
3214.00,-0.0991
3212.00,-0.0991
3210.00,-0.0992
3208.00,-0.0992
3206.00,-0.0992
3204.00,-0.0993
3202.00,-0.0993
3200.00,-0.0993
3198.00,-0.0993
3196.00,-0.0993
3194.00,-0.0993
3192.00,-0.0992
3190.00,-0.0992
3188.00,-0.0992
3186.00,-0.0992
3184.00,-0.0992
3182.00,-0.0993
3180.00,-0.0993
3178.00,-0.0993
3176.00,-0.0993
3174.00,-0.0993
3172.00,-0.0993
3170.00,-0.0993
3168.00,-0.0993
3166.00,-0.0993
3164.00,-0.0993
3162.00,-0.0993
3160.00,-0.0993
3158.00,-0.0993
3156.00,-0.0992
3154.00,-0.0992
3152.00,-0.0992
3150.00,-0.0993
3148.00,-0.0993
3146.00,-0.0993
3144.00,-0.0993
3142.00,-0.0993
3140.00,-0.0993
3138.00,-0.0993
3136.00,-0.0994
3134.00,-0.0994
3132.00,-0.0993
3130.00,-0.0993
3128.00,-0.0993
3126.00,-0.0993
3124.00,-0.0994
3122.00,-0.0994
3120.00,-0.0994
3118.00,-0.0995
3116.00,-0.0995
3114.00,-0.0996
3112.00,-0.0997
3110.00,-0.0997
3108.00,-0.0998
3106.00,-0.0999
3104.00,-0.0999
3102.00,-0.0999
3100.00,-0.0998
3098.00,-0.0998
3096.00,-0.0998
3094.00,-0.0998
3092.00,-0.0999
3090.00,-0.0999
3088.00,-0.0999
3086.00,-0.1000
3084.00,-0.1001
3082.00,-0.1002
3080.00,-0.1003
3078.00,-0.1003
3076.00,-0.1004
3074.00,-0.1004
3072.00,-0.1004
3070.00,-0.1003
3068.00,-0.1003
3066.00,-0.1003
3064.00,-0.1003
3062.00,-0.1003
3060.00,-0.1003
3058.00,-0.1002
3056.00,-0.1002
3054.00,-0.1003
3052.00,-0.1003
3050.00,-0.1003
3048.00,-0.1003
3046.00,-0.1003
3044.00,-0.1003
3042.00,-0.1003
3040.00,-0.1003
3038.00,-0.1003
3036.00,-0.1003
3034.00,-0.1002
3032.00,-0.1002
3030.00,-0.1002
3028.00,-0.1002
3026.00,-0.1002
3024.00,-0.1002
3022.00,-0.1002
3020.00,-0.1001
3018.00,-0.1001
3016.00,-0.1000
3014.00,-0.0999
3012.00,-0.0999
3010.00,-0.0998
3008.00,-0.0997
3006.00,-0.0996
3004.00,-0.0995
3002.00,-0.0993
3000.00,-0.0991
2998.00,-0.0989
2996.00,-0.0988
2994.00,-0.0989
2992.00,-0.0990
2990.00,-0.0991
2988.00,-0.0991
2986.00,-0.0992
2984.00,-0.0992
2982.00,-0.0993
2980.00,-0.0993
2978.00,-0.0994
2976.00,-0.0995
2974.00,-0.0996
2972.00,-0.0997
2970.00,-0.0997
2968.00,-0.0997
2966.00,-0.0997
2964.00,-0.0998
2962.00,-0.0998
2960.00,-0.0998
2958.00,-0.0998
2956.00,-0.0999
2954.00,-0.0999
2952.00,-0.0999
2950.00,-0.0999
2948.00,-0.0999
2946.00,-0.0999
2944.00,-0.0999
2942.00,-0.0999
2940.00,-0.0999
2938.00,-0.0999
2936.00,-0.0999
2934.00,-0.1000
2932.00,-0.1000
2930.00,-0.1001
2928.00,-0.1001
2926.00,-0.1002
2924.00,-0.1002
2922.00,-0.1002
2920.00,-0.1002
2918.00,-0.1002
2916.00,-0.1001
2914.00,-0.1001
2912.00,-0.1000
2910.00,-0.1000
2908.00,-0.1000
2906.00,-0.1000
2904.00,-0.1000
2902.00,-0.1000
2900.00,-0.1000
2898.00,-0.1000
2896.00,-0.1001
2894.00,-0.1001
2892.00,-0.1001
2890.00,-0.1001
2888.00,-0.1002
2886.00,-0.1002
2884.00,-0.1002
2882.00,-0.1002
2880.00,-0.1001
2878.00,-0.1001
2876.00,-0.1001
2874.00,-0.1001
2872.00,-0.1002
2870.00,-0.1002
2868.00,-0.1002
2866.00,-0.1002
2864.00,-0.1003
2862.00,-0.1003
2860.00,-0.1003
2858.00,-0.1003
2856.00,-0.1003
2854.00,-0.1004
2852.00,-0.1004
2850.00,-0.1003
2848.00,-0.1003
2846.00,-0.1002
2844.00,-0.1002
2842.00,-0.1002
2840.00,-0.1002
2838.00,-0.1002
2836.00,-0.1002
2834.00,-0.1002
2832.00,-0.1003
2830.00,-0.1003
2828.00,-0.1003
2826.00,-0.1003
2824.00,-0.1002
2822.00,-0.1002
2820.00,-0.1001
2818.00,-0.1001
2816.00,-0.1001
2814.00,-0.1001
2812.00,-0.1000
2810.00,-0.1000
2808.00,-0.1000
2806.00,-0.1001
2804.00,-0.1001
2802.00,-0.1001
2800.00,-0.1002
2798.00,-0.1002
2796.00,-0.1002
2794.00,-0.1002
2792.00,-0.1001
2790.00,-0.1001
2788.00,-0.1000
2786.00,-0.1000
2784.00,-0.0999
2782.00,-0.0999
2780.00,-0.0999
2778.00,-0.0999
2776.00,-0.0999
2774.00,-0.0999
2772.00,-0.0999
2770.00,-0.0999
2768.00,-0.0999
2766.00,-0.0999
2764.00,-0.0999
2762.00,-0.0999
2760.00,-0.0999
2758.00,-0.0999
2756.00,-0.0998
2754.00,-0.0998
2752.00,-0.0998
2750.00,-0.0998
2748.00,-0.0998
2746.00,-0.0998
2744.00,-0.0998
2742.00,-0.0999
2740.00,-0.0999
2738.00,-0.0999
2736.00,-0.0999
2734.00,-0.0999
2732.00,-0.0999
2730.00,-0.0999
2728.00,-0.0998
2726.00,-0.0997
2724.00,-0.0997
2722.00,-0.0996
2720.00,-0.0995
2718.00,-0.0995
2716.00,-0.0995
2714.00,-0.0995
2712.00,-0.0995
2710.00,-0.0995
2708.00,-0.0995
2706.00,-0.0995
2704.00,-0.0995
2702.00,-0.0995
2700.00,-0.0995
2698.00,-0.0994
2696.00,-0.0994
2694.00,-0.0994
2692.00,-0.0993
2690.00,-0.0993
2688.00,-0.0993
2686.00,-0.0993
2684.00,-0.0993
2682.00,-0.0994
2680.00,-0.0994
2678.00,-0.0994
2676.00,-0.0995
2674.00,-0.0995
2672.00,-0.0995
2670.00,-0.0995
2668.00,-0.0995
2666.00,-0.0994
2664.00,-0.0994
2662.00,-0.0993
2660.00,-0.0992
2658.00,-0.0992
2656.00,-0.0991
2654.00,-0.0991
2652.00,-0.0990
2650.00,-0.0990
2648.00,-0.0990
2646.00,-0.0990
2644.00,-0.0990
2642.00,-0.0990
2640.00,-0.0990
2638.00,-0.0990
2636.00,-0.0990
2634.00,-0.0990
2632.00,-0.0989
2630.00,-0.0989
2628.00,-0.0989
2626.00,-0.0989
2624.00,-0.0989
2622.00,-0.0989
2620.00,-0.0990
2618.00,-0.0990
2616.00,-0.0990
2614.00,-0.0991
2612.00,-0.0991
2610.00,-0.0991
2608.00,-0.0991
2606.00,-0.0991
2604.00,-0.0991
2602.00,-0.0991
2600.00,-0.0991
2598.00,-0.0990
2596.00,-0.0990
2594.00,-0.0990
2592.00,-0.0990
2590.00,-0.0990
2588.00,-0.0990
2586.00,-0.0990
2584.00,-0.0991
2582.00,-0.0991
2580.00,-0.0991
2578.00,-0.0991
2576.00,-0.0991
2574.00,-0.0990
2572.00,-0.0990
2570.00,-0.0990
2568.00,-0.0989
2566.00,-0.0989
2564.00,-0.0988
2562.00,-0.0988
2560.00,-0.0988
2558.00,-0.0988
2556.00,-0.0987
2554.00,-0.0987
2552.00,-0.0987
2550.00,-0.0987
2548.00,-0.0987
2546.00,-0.0986
2544.00,-0.0986
2542.00,-0.0986
2540.00,-0.0985
2538.00,-0.0985
2536.00,-0.0985
2534.00,-0.0985
2532.00,-0.0984
2530.00,-0.0984
2528.00,-0.0984
2526.00,-0.0984
2524.00,-0.0984
2522.00,-0.0984
2520.00,-0.0984
2518.00,-0.0984
2516.00,-0.0984
2514.00,-0.0983
2512.00,-0.0983
2510.00,-0.0982
2508.00,-0.0982
2506.00,-0.0981
2504.00,-0.0980
2502.00,-0.0980
2500.00,-0.0979
2498.00,-0.0979
2496.00,-0.0978
2494.00,-0.0978
2492.00,-0.0978
2490.00,-0.0978
2488.00,-0.0978
2486.00,-0.0978
2484.00,-0.0978
2482.00,-0.0978
2480.00,-0.0978
2478.00,-0.0977
2476.00,-0.0977
2474.00,-0.0976
2472.00,-0.0976
2470.00,-0.0976
2468.00,-0.0975
2466.00,-0.0975
2464.00,-0.0975
2462.00,-0.0975
2460.00,-0.0975
2458.00,-0.0975
2456.00,-0.0976
2454.00,-0.0976
2452.00,-0.0976
2450.00,-0.0976
2448.00,-0.0976
2446.00,-0.0977
2444.00,-0.0977
2442.00,-0.0977
2440.00,-0.0977
2438.00,-0.0978
2436.00,-0.0978
2434.00,-0.0978
2432.00,-0.0979
2430.00,-0.0980
2428.00,-0.0980
2426.00,-0.0981
2424.00,-0.0982
2422.00,-0.0982
2420.00,-0.0983
2418.00,-0.0983
2416.00,-0.0983
2414.00,-0.0983
2412.00,-0.0983
2410.00,-0.0983
2408.00,-0.0983
2406.00,-0.0982
2404.00,-0.0982
2402.00,-0.0981
2400.00,-0.0981
2398.00,-0.0981
2396.00,-0.0981
2394.00,-0.0981
2392.00,-0.0981
2390.00,-0.0981
2388.00,-0.0981
2386.00,-0.0981
2384.00,-0.0981
2382.00,-0.0982
2380.00,-0.0982
2378.00,-0.0983
2376.00,-0.0983
2374.00,-0.0983
2372.00,-0.0983
2370.00,-0.0982
2368.00,-0.0982
2366.00,-0.0982
2364.00,-0.0983
2362.00,-0.0983
2360.00,-0.0983
2358.00,-0.0983
2356.00,-0.0983
2354.00,-0.0983
2352.00,-0.0982
2350.00,-0.0983
2348.00,-0.0984
2346.00,-0.0985
2344.00,-0.0985
2342.00,-0.0983
2340.00,-0.0981
2338.00,-0.0981
2336.00,-0.0980
2334.00,-0.0980
2332.00,-0.0980
2330.00,-0.0980
2328.00,-0.0979
2326.00,-0.0978
2324.00,-0.0978
2322.00,-0.0977
2320.00,-0.0975
2318.00,-0.0974
2316.00,-0.0974
2314.00,-0.0974
2312.00,-0.0974
2310.00,-0.0973
2308.00,-0.0973
2306.00,-0.0973
2304.00,-0.0973
2302.00,-0.0973
2300.00,-0.0973
2298.00,-0.0974
2296.00,-0.0974
2294.00,-0.0974
2292.00,-0.0974
2290.00,-0.0974
2288.00,-0.0974
2286.00,-0.0973
2284.00,-0.0973
2282.00,-0.0973
2280.00,-0.0973
2278.00,-0.0973
2276.00,-0.0973
2274.00,-0.0973
2272.00,-0.0974
2270.00,-0.0974
2268.00,-0.0974
2266.00,-0.0974
2264.00,-0.0974
2262.00,-0.0974
2260.00,-0.0974
2258.00,-0.0974
2256.00,-0.0974
2254.00,-0.0973
2252.00,-0.0973
2250.00,-0.0973
2248.00,-0.0973
2246.00,-0.0973
2244.00,-0.0973
2242.00,-0.0972
2240.00,-0.0972
2238.00,-0.0972
2236.00,-0.0972
2234.00,-0.0971
2232.00,-0.0971
2230.00,-0.0971
2228.00,-0.0970
2226.00,-0.0970
2224.00,-0.0969
2222.00,-0.0969
2220.00,-0.0968
2218.00,-0.0968
2216.00,-0.0968
2214.00,-0.0968
2212.00,-0.0968
2210.00,-0.0968
2208.00,-0.0968
2206.00,-0.0968
2204.00,-0.0968
2202.00,-0.0967
2200.00,-0.0967
2198.00,-0.0966
2196.00,-0.0966
2194.00,-0.0965
2192.00,-0.0964
2190.00,-0.0964
2188.00,-0.0963
2186.00,-0.0963
2184.00,-0.0963
2182.00,-0.0962
2180.00,-0.0962
2178.00,-0.0963
2176.00,-0.0963
2174.00,-0.0963
2172.00,-0.0963
2170.00,-0.0964
2168.00,-0.0964
2166.00,-0.0965
2164.00,-0.0965
2162.00,-0.0965
2160.00,-0.0965
2158.00,-0.0965
2156.00,-0.0965
2154.00,-0.0965
2152.00,-0.0965
2150.00,-0.0965
2148.00,-0.0965
2146.00,-0.0965
2144.00,-0.0965
2142.00,-0.0965
2140.00,-0.0965
2138.00,-0.0964
2136.00,-0.0964
2134.00,-0.0963
2132.00,-0.0963
2130.00,-0.0962
2128.00,-0.0962
2126.00,-0.0962
2124.00,-0.0962
2122.00,-0.0962
2120.00,-0.0962
2118.00,-0.0962
2116.00,-0.0962
2114.00,-0.0962
2112.00,-0.0962
2110.00,-0.0962
2108.00,-0.0962
2106.00,-0.0962
2104.00,-0.0962
2102.00,-0.0962
2100.00,-0.0961
2098.00,-0.0961
2096.00,-0.0961
2094.00,-0.0961
2092.00,-0.0961
2090.00,-0.0961
2088.00,-0.0961
2086.00,-0.0962
2084.00,-0.0962
2082.00,-0.0962
2080.00,-0.0963
2078.00,-0.0963
2076.00,-0.0963
2074.00,-0.0963
2072.00,-0.0963
2070.00,-0.0963
2068.00,-0.0963
2066.00,-0.0962
2064.00,-0.0962
2062.00,-0.0962
2060.00,-0.0961
2058.00,-0.0961
2056.00,-0.0961
2054.00,-0.0961
2052.00,-0.0961
2050.00,-0.0961
2048.00,-0.0961
2046.00,-0.0962
2044.00,-0.0962
2042.00,-0.0962
2040.00,-0.0963
2038.00,-0.0963
2036.00,-0.0963
2034.00,-0.0963
2032.00,-0.0963
2030.00,-0.0963
2028.00,-0.0963
2026.00,-0.0962
2024.00,-0.0962
2022.00,-0.0962
2020.00,-0.0961
2018.00,-0.0961
2016.00,-0.0961
2014.00,-0.0961
2012.00,-0.0961
2010.00,-0.0961
2008.00,-0.0961
2006.00,-0.0961
2004.00,-0.0962
2002.00,-0.0962
2000.00,-0.0963
1998.00,-0.0963
1996.00,-0.0964
1994.00,-0.0965
1992.00,-0.0966
1990.00,-0.0967
1988.00,-0.0968
1986.00,-0.0969
1984.00,-0.0970
1982.00,-0.0971
1980.00,-0.0971
1978.00,-0.0972
1976.00,-0.0972
1974.00,-0.0972
1972.00,-0.0971
1970.00,-0.0970
1968.00,-0.0969
1966.00,-0.0969
1964.00,-0.0969
1962.00,-0.0969
1960.00,-0.0970
1958.00,-0.0971
1956.00,-0.0973
1954.00,-0.0974
1952.00,-0.0976
1950.00,-0.0977
1948.00,-0.0978
1946.00,-0.0978
1944.00,-0.0977
1942.00,-0.0977
1940.00,-0.0976
1938.00,-0.0974
1936.00,-0.0972
1934.00,-0.0971
1932.00,-0.0969
1930.00,-0.0968
1928.00,-0.0967
1926.00,-0.0967
1924.00,-0.0967
1922.00,-0.0967
1920.00,-0.0967
1918.00,-0.0967
1916.00,-0.0968
1914.00,-0.0967
1912.00,-0.0967
1910.00,-0.0966
1908.00,-0.0966
1906.00,-0.0965
1904.00,-0.0965
1902.00,-0.0965
1900.00,-0.0965
1898.00,-0.0965
1896.00,-0.0965
1894.00,-0.0966
1892.00,-0.0966
1890.00,-0.0967
1888.00,-0.0967
1886.00,-0.0968
1884.00,-0.0968
1882.00,-0.0969
1880.00,-0.0969
1878.00,-0.0970
1876.00,-0.0971
1874.00,-0.0971
1872.00,-0.0971
1870.00,-0.0971
1868.00,-0.0971
1866.00,-0.0971
1864.00,-0.0971
1862.00,-0.0971
1860.00,-0.0971
1858.00,-0.0972
1856.00,-0.0973
1854.00,-0.0974
1852.00,-0.0975
1850.00,-0.0976
1848.00,-0.0977
1846.00,-0.0978
1844.00,-0.0978
1842.00,-0.0979
1840.00,-0.0979
1838.00,-0.0979
1836.00,-0.0979
1834.00,-0.0979
1832.00,-0.0979
1830.00,-0.0979
1828.00,-0.0979
1826.00,-0.0979
1824.00,-0.0980
1822.00,-0.0980
1820.00,-0.0981
1818.00,-0.0982
1816.00,-0.0982
1814.00,-0.0983
1812.00,-0.0983
1810.00,-0.0984
1808.00,-0.0985
1806.00,-0.0985
1804.00,-0.0986
1802.00,-0.0986
1800.00,-0.0987
1798.00,-0.0987
1796.00,-0.0987
1794.00,-0.0987
1792.00,-0.0986
1790.00,-0.0984
1788.00,-0.0982
1786.00,-0.0979
1784.00,-0.0976
1782.00,-0.0972
1780.00,-0.0967
1778.00,-0.0960
1776.00,-0.0952
1774.00,-0.0944
1772.00,-0.0935
1770.00,-0.0931
1768.00,-0.0936
1766.00,-0.0942
1764.00,-0.0943
1762.00,-0.0939
1760.00,-0.0936
1758.00,-0.0936
1756.00,-0.0940
1754.00,-0.0946
1752.00,-0.0953
1750.00,-0.0962
1748.00,-0.0969
1746.00,-0.0974
1744.00,-0.0978
1742.00,-0.0982
1740.00,-0.0984
1738.00,-0.0987
1736.00,-0.0988
1734.00,-0.0990
1732.00,-0.0991
1730.00,-0.0992
1728.00,-0.0993
1726.00,-0.0993
1724.00,-0.0993
1722.00,-0.0993
1720.00,-0.0993
1718.00,-0.0993
1716.00,-0.0993
1714.00,-0.0993
1712.00,-0.0994
1710.00,-0.0994
1708.00,-0.0994
1706.00,-0.0994
1704.00,-0.0995
1702.00,-0.0995
1700.00,-0.0995
1698.00,-0.0994
1696.00,-0.0994
1694.00,-0.0994
1692.00,-0.0994
1690.00,-0.0994
1688.00,-0.0994
1686.00,-0.0994
1684.00,-0.0993
1682.00,-0.0994
1680.00,-0.0993
1678.00,-0.0994
1676.00,-0.0993
1674.00,-0.0993
1672.00,-0.0993
1670.00,-0.0992
1668.00,-0.0993
1666.00,-0.0992
1664.00,-0.0992
1662.00,-0.0992
1660.00,-0.0991
1658.00,-0.0991
1656.00,-0.0991
1654.00,-0.0991
1652.00,-0.0991
1650.00,-0.0990
1648.00,-0.0990
1646.00,-0.0991
1644.00,-0.0991
1642.00,-0.0991
1640.00,-0.0992
1638.00,-0.0993
1636.00,-0.0993
1634.00,-0.0993
1632.00,-0.0992
1630.00,-0.0992
1628.00,-0.0992
1626.00,-0.0992
1624.00,-0.0991
1622.00,-0.0991
1620.00,-0.0991
1618.00,-0.0991
1616.00,-0.0991
1614.00,-0.0991
1612.00,-0.0991
1610.00,-0.0992
1608.00,-0.0993
1606.00,-0.0994
1604.00,-0.0994
1602.00,-0.0994
1600.00,-0.0994
1598.00,-0.0994
1596.00,-0.0994
1594.00,-0.0993
1592.00,-0.0993
1590.00,-0.0993
1588.00,-0.0993
1586.00,-0.0993
1584.00,-0.0994
1582.00,-0.0994
1580.00,-0.0994
1578.00,-0.0994
1576.00,-0.0994
1574.00,-0.0993
1572.00,-0.0993
1570.00,-0.0993
1568.00,-0.0992
1566.00,-0.0991
1564.00,-0.0991
1562.00,-0.0991
1560.00,-0.0990
1558.00,-0.0989
1556.00,-0.0989
1554.00,-0.0989
1552.00,-0.0990
1550.00,-0.0991
1548.00,-0.0992
1546.00,-0.0992
1544.00,-0.0994
1542.00,-0.0994
1540.00,-0.0994
1538.00,-0.0994
1536.00,-0.0993
1534.00,-0.0992
1532.00,-0.0992
1530.00,-0.0991
1528.00,-0.0991
1526.00,-0.0990
1524.00,-0.0990
1522.00,-0.0989
1520.00,-0.0989
1518.00,-0.0989
1516.00,-0.0990
1514.00,-0.0990
1512.00,-0.0989
1510.00,-0.0990
1508.00,-0.0991
1506.00,-0.0991
1504.00,-0.0990
1502.00,-0.0991
1500.00,-0.0991
1498.00,-0.0991
1496.00,-0.0990
1494.00,-0.0990
1492.00,-0.0990
1490.00,-0.0991
1488.00,-0.0991
1486.00,-0.0991
1484.00,-0.0991
1482.00,-0.0991
1480.00,-0.0991
1478.00,-0.0991
1476.00,-0.0991
1474.00,-0.0991
1472.00,-0.0991
1470.00,-0.0991
1468.00,-0.0991
1466.00,-0.0991
1464.00,-0.0991
1462.00,-0.0991
1460.00,-0.0991
1458.00,-0.0991
1456.00,-0.0991
1454.00,-0.0990
1452.00,-0.0990
1450.00,-0.0990
1448.00,-0.0991
1446.00,-0.0991
1444.00,-0.0991
1442.00,-0.0991
1440.00,-0.0990
1438.00,-0.0990
1436.00,-0.0990
1434.00,-0.0991
1432.00,-0.0991
1430.00,-0.0991
1428.00,-0.0991
1426.00,-0.0991
1424.00,-0.0991
1422.00,-0.0991
1420.00,-0.0991
1418.00,-0.0992
1416.00,-0.0992
1414.00,-0.0991
1412.00,-0.0991
1410.00,-0.0991
1408.00,-0.0990
1406.00,-0.0989
1404.00,-0.0989
1402.00,-0.0989
1400.00,-0.0988
1398.00,-0.0988
1396.00,-0.0988
1394.00,-0.0987
1392.00,-0.0986
1390.00,-0.0983
1388.00,-0.0981
1386.00,-0.0979
1384.00,-0.0977
1382.00,-0.0977
1380.00,-0.0977
1378.00,-0.0977
1376.00,-0.0977
1374.00,-0.0977
1372.00,-0.0977
1370.00,-0.0978
1368.00,-0.0980
1366.00,-0.0982
1364.00,-0.0984
1362.00,-0.0987
1360.00,-0.0989
1358.00,-0.0989
1356.00,-0.0990
1354.00,-0.0990
1352.00,-0.0991
1350.00,-0.0992
1348.00,-0.0992
1346.00,-0.0993
1344.00,-0.0993
1342.00,-0.0993
1340.00,-0.0994
1338.00,-0.0994
1336.00,-0.0994
1334.00,-0.0994
1332.00,-0.0994
1330.00,-0.0994
1328.00,-0.0994
1326.00,-0.0993
1324.00,-0.0993
1322.00,-0.0992
1320.00,-0.0992
1318.00,-0.0991
1316.00,-0.0991
1314.00,-0.0991
1312.00,-0.0990
1310.00,-0.0990
1308.00,-0.0990
1306.00,-0.0990
1304.00,-0.0990
1302.00,-0.0990
1300.00,-0.0990
1298.00,-0.0991
1296.00,-0.0991
1294.00,-0.0991
1292.00,-0.0991
1290.00,-0.0991
1288.00,-0.0990
1286.00,-0.0990
1284.00,-0.0989
1282.00,-0.0988
1280.00,-0.0987
1278.00,-0.0985
1276.00,-0.0983
1274.00,-0.0982
1272.00,-0.0981
1270.00,-0.0980
1268.00,-0.0978
1266.00,-0.0975
1264.00,-0.0971
1262.00,-0.0964
1260.00,-0.0956
1258.00,-0.0947
1256.00,-0.0939
1254.00,-0.0929
1252.00,-0.0918
1250.00,-0.0906
1248.00,-0.0898
1246.00,-0.0896
1244.00,-0.0897
1242.00,-0.0897
1240.00,-0.0899
1238.00,-0.0905
1236.00,-0.0911
1234.00,-0.0918
1232.00,-0.0925
1230.00,-0.0935
1228.00,-0.0946
1226.00,-0.0955
1224.00,-0.0963
1222.00,-0.0969
1220.00,-0.0973
1218.00,-0.0976
1216.00,-0.0978
1214.00,-0.0980
1212.00,-0.0982
1210.00,-0.0983
1208.00,-0.0984
1206.00,-0.0985
1204.00,-0.0986
1202.00,-0.0987
1200.00,-0.0987
1198.00,-0.0988
1196.00,-0.0988
1194.00,-0.0989
1192.00,-0.0989
1190.00,-0.0989
1188.00,-0.0989
1186.00,-0.0989
1184.00,-0.0990
1182.00,-0.0990
1180.00,-0.0989
1178.00,-0.0989
1176.00,-0.0989
1174.00,-0.0989
1172.00,-0.0989
1170.00,-0.0989
1168.00,-0.0989
1166.00,-0.0989
1164.00,-0.0988
1162.00,-0.0988
1160.00,-0.0988
1158.00,-0.0988
1156.00,-0.0988
1154.00,-0.0988
1152.00,-0.0988
1150.00,-0.0988
1148.00,-0.0988
1146.00,-0.0988
1144.00,-0.0988
1142.00,-0.0988
1140.00,-0.0988
1138.00,-0.0987
1136.00,-0.0987
1134.00,-0.0987
1132.00,-0.0987
1130.00,-0.0987
1128.00,-0.0987
1126.00,-0.0986
1124.00,-0.0986
1122.00,-0.0986
1120.00,-0.0986
1118.00,-0.0985
1116.00,-0.0984
1114.00,-0.0984
1112.00,-0.0983
1110.00,-0.0982
1108.00,-0.0982
1106.00,-0.0982
1104.00,-0.0981
1102.00,-0.0981
1100.00,-0.0981
1098.00,-0.0981
1096.00,-0.0980
1094.00,-0.0980
1092.00,-0.0980
1090.00,-0.0981
1088.00,-0.0981
1086.00,-0.0980
1084.00,-0.0980
1082.00,-0.0980
1080.00,-0.0979
1078.00,-0.0978
1076.00,-0.0977
1074.00,-0.0975
1072.00,-0.0973
1070.00,-0.0970
1068.00,-0.0967
1066.00,-0.0963
1064.00,-0.0961
1062.00,-0.0959
1060.00,-0.0958
1058.00,-0.0958
1056.00,-0.0958
1054.00,-0.0958
1052.00,-0.0958
1050.00,-0.0960
1048.00,-0.0962
1046.00,-0.0965
1044.00,-0.0968
1042.00,-0.0971
1040.00,-0.0974
1038.00,-0.0977
1036.00,-0.0979
1034.00,-0.0981
1032.00,-0.0982
1030.00,-0.0984
1028.00,-0.0985
1026.00,-0.0986
1024.00,-0.0986
1022.00,-0.0987
1020.00,-0.0988
1018.00,-0.0989
1016.00,-0.0989
1014.00,-0.0989
1012.00,-0.0990
1010.00,-0.0990
1008.00,-0.0990
1006.00,-0.0991
1004.00,-0.0991
1002.00,-0.0992
1000.00,-0.0992
998.00,-0.0992
996.00,-0.0993
994.00,-0.0993
992.00,-0.0994
990.00,-0.0994
988.00,-0.0994
986.00,-0.0995
984.00,-0.0995
982.00,-0.0996
980.00,-0.0996
978.00,-0.0996
976.00,-0.0997
974.00,-0.0997
972.00,-0.0997
970.00,-0.0997
968.00,-0.0998
966.00,-0.0998
964.00,-0.0999
962.00,-0.0999
960.00,-0.0999
958.00,-0.0999
956.00,-0.0999
954.00,-0.0999
952.00,-0.0999
950.00,-0.0999
948.00,-0.0999
946.00,-0.0999
944.00,-0.0998
942.00,-0.0999
940.00,-0.0999
938.00,-0.0999
936.00,-0.0999
934.00,-0.0999
932.00,-0.0999
930.00,-0.0999
928.00,-0.0999
926.00,-0.1000
924.00,-0.1000
922.00,-0.1000
920.00,-0.1000
918.00,-0.1000
916.00,-0.1000
914.00,-0.1001
912.00,-0.1001
910.00,-0.1001
908.00,-0.1001
906.00,-0.1002
904.00,-0.1002
902.00,-0.1002
900.00,-0.1002
898.00,-0.1003
896.00,-0.1003
894.00,-0.1003
892.00,-0.1003
890.00,-0.1003
888.00,-0.1003
886.00,-0.1004
884.00,-0.1003
882.00,-0.1003
880.00,-0.1003
878.00,-0.1003
876.00,-0.1003
874.00,-0.1003
872.00,-0.1003
870.00,-0.1003
868.00,-0.1003
866.00,-0.1003
864.00,-0.1003
862.00,-0.1003
860.00,-0.1003
858.00,-0.1003
856.00,-0.1002
854.00,-0.1002
852.00,-0.1002
850.00,-0.1002
848.00,-0.1002
846.00,-0.1002
844.00,-0.1003
842.00,-0.1003
840.00,-0.1003
838.00,-0.1003
836.00,-0.1003
834.00,-0.1003
832.00,-0.1003
830.00,-0.1002
828.00,-0.1002
826.00,-0.1002
824.00,-0.1002
822.00,-0.1002
820.00,-0.1002
818.00,-0.1002
816.00,-0.1002
814.00,-0.1002
812.00,-0.1002
810.00,-0.1002
808.00,-0.1003
806.00,-0.1003
804.00,-0.1003
802.00,-0.1002
800.00,-0.1002
798.00,-0.1002
796.00,-0.1002
794.00,-0.1002
792.00,-0.1003
790.00,-0.1003
788.00,-0.1003
786.00,-0.1003
784.00,-0.1003
782.00,-0.1003
780.00,-0.1003
778.00,-0.1003
776.00,-0.1003
774.00,-0.1003
772.00,-0.1003
770.00,-0.1003
768.00,-0.1003
766.00,-0.1003
764.00,-0.1003
762.00,-0.1003
760.00,-0.1003
758.00,-0.1003
756.00,-0.1003
754.00,-0.1003
752.00,-0.1003
750.00,-0.1003
748.00,-0.1003
746.00,-0.1003
744.00,-0.1003
742.00,-0.1003
740.00,-0.1003
738.00,-0.1003
736.00,-0.1003
734.00,-0.1002
732.00,-0.1002
730.00,-0.1002
728.00,-0.1002
726.00,-0.1002
724.00,-0.1002
722.00,-0.1003
720.00,-0.1002
718.00,-0.1002
716.00,-0.1002
714.00,-0.1002
712.00,-0.1002
710.00,-0.1002
708.00,-0.1002
706.00,-0.1002
704.00,-0.1002
702.00,-0.1002
700.00,-0.1002
698.00,-0.1002
696.00,-0.1002
694.00,-0.1002
692.00,-0.1002
690.00,-0.1002
688.00,-0.1003
686.00,-0.1003
684.00,-0.1003
682.00,-0.1003
680.00,-0.1003
678.00,-0.1003
676.00,-0.1002
674.00,-0.1002
672.00,-0.1002
670.00,-0.1005
668.00,-0.1003
666.00,-0.0997
664.00,-0.1000
662.00,-0.1001
660.00,-0.1001
658.00,-0.1001
656.00,-0.1000
654.00,-0.1000
652.00,-0.1000
650.00,-0.1000
648.00,-0.0999
646.00,-0.0998
644.00,-0.0997
642.00,-0.0997
640.00,-0.0996
638.00,-0.0995
636.00,-0.0995
634.00,-0.0995
632.00,-0.0994
630.00,-0.0994
628.00,-0.0994
626.00,-0.0994
624.00,-0.0994
622.00,-0.0994
620.00,-0.0994
618.00,-0.0993
616.00,-0.0993
614.00,-0.0994
612.00,-0.0993
610.00,-0.0993
608.00,-0.0992
606.00,-0.0992
604.00,-0.0992
602.00,-0.0993
600.00,-0.0994
598.00,-0.0994
596.00,-0.0994
594.00,-0.0994
592.00,-0.0995
590.00,-0.0995
588.00,-0.0995
586.00,-0.0994
584.00,-0.0994
582.00,-0.0995
580.00,-0.0994
578.00,-0.0993
576.00,-0.0993
574.00,-0.0992
572.00,-0.0992
570.00,-0.0993
568.00,-0.0992
566.00,-0.0991
564.00,-0.0991
562.00,-0.0991
560.00,-0.0991
558.00,-0.0991
556.00,-0.0992
554.00,-0.0992
552.00,-0.0992
550.00,-0.0992
548.00,-0.0992
546.00,-0.0992
544.00,-0.0993
542.00,-0.0993
540.00,-0.0993
538.00,-0.0993
536.00,-0.0994
534.00,-0.0994
532.00,-0.0995
530.00,-0.0997
528.00,-0.0997
526.00,-0.0997
524.00,-0.0997
522.00,-0.0998
520.00,-0.0999
518.00,-0.0999
516.00,-0.1000
514.00,-0.1000
512.00,-0.1002
510.00,-0.1002
508.00,-0.1001
506.00,-0.1000
504.00,-0.1001
502.00,-0.1003
500.00,-0.1004
