Created as New Dataset,Sample 056 By Analyst Date Wednesday, April 02 2025
cm-1,A
4000.00,-0.1004
3998.00,-0.1004
3996.00,-0.1004
3994.00,-0.1004
3992.00,-0.1004
3990.00,-0.1004
3988.00,-0.1004
3986.00,-0.1003
3984.00,-0.1003
3982.00,-0.1003
3980.00,-0.1002
3978.00,-0.1002
3976.00,-0.1002
3974.00,-0.1001
3972.00,-0.1001
3970.00,-0.1001
3968.00,-0.1001
3966.00,-0.1001
3964.00,-0.1001
3962.00,-0.1001
3960.00,-0.1001
3958.00,-0.1001
3956.00,-0.1001
3954.00,-0.1001
3952.00,-0.1001
3950.00,-0.1001
3948.00,-0.1000
3946.00,-0.1000
3944.00,-0.1000
3942.00,-0.1000
3940.00,-0.0999
3938.00,-0.0999
3936.00,-0.0999
3934.00,-0.1000
3932.00,-0.1000
3930.00,-0.0999
3928.00,-0.0999
3926.00,-0.0999
3924.00,-0.0999
3922.00,-0.0999
3920.00,-0.0998
3918.00,-0.0998
3916.00,-0.0997
3914.00,-0.0997
3912.00,-0.0996
3910.00,-0.0996
3908.00,-0.0996
3906.00,-0.0996
3904.00,-0.0996
3902.00,-0.0996
3900.00,-0.0996
3898.00,-0.0996
3896.00,-0.0997
3894.00,-0.0997
3892.00,-0.0997
3890.00,-0.0996
3888.00,-0.0997
3886.00,-0.0997
3884.00,-0.0996
3882.00,-0.0996
3880.00,-0.0995
3878.00,-0.0995
3876.00,-0.0996
3874.00,-0.0995
3872.00,-0.0996
3870.00,-0.0996
3868.00,-0.0996
3866.00,-0.0996
3864.00,-0.0996
3862.00,-0.0996
3860.00,-0.0996
3858.00,-0.0995
3856.00,-0.0993
3854.00,-0.0993
3852.00,-0.0993
3850.00,-0.0993
3848.00,-0.0994
3846.00,-0.0994
3844.00,-0.0994
3842.00,-0.0994
3840.00,-0.0994
3838.00,-0.0994
3836.00,-0.0994
3834.00,-0.0994
3832.00,-0.0993
3830.00,-0.0993
3828.00,-0.0994
3826.00,-0.0993
3824.00,-0.0992
3822.00,-0.0992
3820.00,-0.0990
3818.00,-0.0991
3816.00,-0.0990
3814.00,-0.0989
3812.00,-0.0990
3810.00,-0.0990
3808.00,-0.0990
3806.00,-0.0990
3804.00,-0.0991
3802.00,-0.0991
3800.00,-0.0990
3798.00,-0.0990
3796.00,-0.0990
3794.00,-0.0989
3792.00,-0.0990
3790.00,-0.0989
3788.00,-0.0989
3786.00,-0.0989
3784.00,-0.0989
3782.00,-0.0989
3780.00,-0.0989
3778.00,-0.0989
3776.00,-0.0990
3774.00,-0.0990
3772.00,-0.0990
3770.00,-0.0991
3768.00,-0.0991
3766.00,-0.0991
3764.00,-0.0991
3762.00,-0.0991
3760.00,-0.0990
3758.00,-0.0990
3756.00,-0.0989
3754.00,-0.0989
3752.00,-0.0988
3750.00,-0.0988
3748.00,-0.0987
3746.00,-0.0986
3744.00,-0.0986
3742.00,-0.0986
3740.00,-0.0987
3738.00,-0.0987
3736.00,-0.0987
3734.00,-0.0986
3732.00,-0.0985
3730.00,-0.0984
3728.00,-0.0984
3726.00,-0.0984
3724.00,-0.0984
3722.00,-0.0983
3720.00,-0.0983
3718.00,-0.0983
3716.00,-0.0983
3714.00,-0.0984
3712.00,-0.0985
3710.00,-0.0985
3708.00,-0.0986
3706.00,-0.0987
3704.00,-0.0987
3702.00,-0.0988
3700.00,-0.0988
3698.00,-0.0990
3696.00,-0.0990
3694.00,-0.0991
3692.00,-0.0992
3690.00,-0.0992
3688.00,-0.0994
3686.00,-0.0994
3684.00,-0.0995
3682.00,-0.0996
3680.00,-0.0997
3678.00,-0.0998
3676.00,-0.0998
3674.00,-0.0997
3672.00,-0.0998
3670.00,-0.0997
3668.00,-0.0996
3666.00,-0.0996
3664.00,-0.0996
3662.00,-0.0995
3660.00,-0.0995
3658.00,-0.0995
3656.00,-0.0994
3654.00,-0.0994
3652.00,-0.0994
3650.00,-0.0994
3648.00,-0.0994
3646.00,-0.0993
3644.00,-0.0993
3642.00,-0.0992
3640.00,-0.0992
3638.00,-0.0992
3636.00,-0.0992
3634.00,-0.0991
3632.00,-0.0991
3630.00,-0.0991
3628.00,-0.0991
3626.00,-0.0991
3624.00,-0.0992
3622.00,-0.0992
3620.00,-0.0993
3618.00,-0.0993
3616.00,-0.0993
3614.00,-0.0994
3612.00,-0.0994
3610.00,-0.0994
3608.00,-0.0994
3606.00,-0.0993
3604.00,-0.0993
3602.00,-0.0993
3600.00,-0.0993
3598.00,-0.0993
3596.00,-0.0993
3594.00,-0.0993
3592.00,-0.0993
3590.00,-0.0994
3588.00,-0.0994
3586.00,-0.0994
3584.00,-0.0994
3582.00,-0.0994
3580.00,-0.0995
3578.00,-0.0995
3576.00,-0.0995
3574.00,-0.0995
3572.00,-0.0995
3570.00,-0.0995
3568.00,-0.0996
3566.00,-0.0996
3564.00,-0.0996
3562.00,-0.0996
3560.00,-0.0996
3558.00,-0.0997
3556.00,-0.0997
3554.00,-0.0997
3552.00,-0.0997
3550.00,-0.0997
3548.00,-0.0998
3546.00,-0.0997
3544.00,-0.0997
3542.00,-0.0996
3540.00,-0.0996
3538.00,-0.0996
3536.00,-0.0995
3534.00,-0.0995
3532.00,-0.0995
3530.00,-0.0995
3528.00,-0.0995
3526.00,-0.0995
3524.00,-0.0995
3522.00,-0.0995
3520.00,-0.0995
3518.00,-0.0995
3516.00,-0.0995
3514.00,-0.0994
3512.00,-0.0994
3510.00,-0.0994
3508.00,-0.0994
3506.00,-0.0994
3504.00,-0.0993
3502.00,-0.0993
3500.00,-0.0994
3498.00,-0.0994
3496.00,-0.0995
3494.00,-0.0995
3492.00,-0.0996
3490.00,-0.0996
3488.00,-0.0997
3486.00,-0.0997
3484.00,-0.0997
3482.00,-0.0997
3480.00,-0.0998
3478.00,-0.0998
3476.00,-0.0998
3474.00,-0.0998
3472.00,-0.0998
3470.00,-0.0998
3468.00,-0.0998
3466.00,-0.0999
3464.00,-0.0999
3462.00,-0.1000
3460.00,-0.1001
3458.00,-0.1001
3456.00,-0.1001
3454.00,-0.1002
3452.00,-0.1002
3450.00,-0.1002
3448.00,-0.1002
3446.00,-0.1002
3444.00,-0.1002
3442.00,-0.1003
3440.00,-0.1003
3438.00,-0.1003
3436.00,-0.1003
3434.00,-0.1003
3432.00,-0.1004
3430.00,-0.1004
3428.00,-0.1004
3426.00,-0.1005
3424.00,-0.1005
3422.00,-0.1004
3420.00,-0.1004
3418.00,-0.1003
3416.00,-0.1002
3414.00,-0.1002
3412.00,-0.1001
3410.00,-0.1000
3408.00,-0.0999
3406.00,-0.0998
3404.00,-0.0998
3402.00,-0.0997
3400.00,-0.0997
3398.00,-0.0996
3396.00,-0.0996
3394.00,-0.0996
3392.00,-0.0995
3390.00,-0.0995
3388.00,-0.0994
3386.00,-0.0994
3384.00,-0.0993
3382.00,-0.0992
3380.00,-0.0992
3378.00,-0.0992
3376.00,-0.0991
3374.00,-0.0991
3372.00,-0.0991
3370.00,-0.0991
3368.00,-0.0991
3366.00,-0.0991
3364.00,-0.0991
3362.00,-0.0991
3360.00,-0.0991
3358.00,-0.0991
3356.00,-0.0990
3354.00,-0.0990
3352.00,-0.0990
3350.00,-0.0990
3348.00,-0.0990
3346.00,-0.0990
3344.00,-0.0990
3342.00,-0.0990
3340.00,-0.0990
3338.00,-0.0991
3336.00,-0.0991
3334.00,-0.0992
3332.00,-0.0993
3330.00,-0.0993
3328.00,-0.0993
3326.00,-0.0993
3324.00,-0.0993
3322.00,-0.0993
3320.00,-0.0993
3318.00,-0.0993
3316.00,-0.0994
3314.00,-0.0994
3312.00,-0.0995
3310.00,-0.0996
3308.00,-0.0997
3306.00,-0.0998
3304.00,-0.1000
3302.00,-0.1000
3300.00,-0.1001
3298.00,-0.1000
3296.00,-0.0999
3294.00,-0.0997
3292.00,-0.0996
3290.00,-0.0995
3288.00,-0.0993
3286.00,-0.0992
3284.00,-0.0991
3282.00,-0.0991
3280.00,-0.0990
3278.00,-0.0990
3276.00,-0.0989
3274.00,-0.0989
3272.00,-0.0989
3270.00,-0.0988
3268.00,-0.0988
3266.00,-0.0988
3264.00,-0.0988
3262.00,-0.0988
3260.00,-0.0988
3258.00,-0.0987
3256.00,-0.0987
3254.00,-0.0987
3252.00,-0.0987
3250.00,-0.0987
3248.00,-0.0987
3246.00,-0.0988
3244.00,-0.0988
3242.00,-0.0989
3240.00,-0.0989
3238.00,-0.0989
3236.00,-0.0989
3234.00,-0.0990
3232.00,-0.0990
3230.00,-0.0990
3228.00,-0.0990
3226.00,-0.0990
3224.00,-0.0990
3222.00,-0.0990
3220.00,-0.0990
3218.00,-0.0991
3216.00,-0.0991
3214.00,-0.0992
3212.00,-0.0992
3210.00,-0.0993
3208.00,-0.0993
3206.00,-0.0993
3204.00,-0.0994
3202.00,-0.0994
3200.00,-0.0994
3198.00,-0.0994
3196.00,-0.0994
3194.00,-0.0993
3192.00,-0.0993
3190.00,-0.0993
3188.00,-0.0993
3186.00,-0.0993
3184.00,-0.0993
3182.00,-0.0994
3180.00,-0.0994
3178.00,-0.0994
3176.00,-0.0994
3174.00,-0.0994
3172.00,-0.0994
3170.00,-0.0994
3168.00,-0.0994
3166.00,-0.0994
3164.00,-0.0994
3162.00,-0.0993
3160.00,-0.0993
3158.00,-0.0993
3156.00,-0.0993
3154.00,-0.0993
3152.00,-0.0993
3150.00,-0.0994
3148.00,-0.0994
3146.00,-0.0994
3144.00,-0.0994
3142.00,-0.0994
3140.00,-0.0995
3138.00,-0.0995
3136.00,-0.0995
3134.00,-0.0995
3132.00,-0.0994
3130.00,-0.0994
3128.00,-0.0994
3126.00,-0.0995
3124.00,-0.0995
3122.00,-0.0995
3120.00,-0.0996
3118.00,-0.0996
3116.00,-0.0997
3114.00,-0.0998
3112.00,-0.0998
3110.00,-0.0999
3108.00,-0.0999
3106.00,-0.1000
3104.00,-0.1000
3102.00,-0.1000
3100.00,-0.0999
3098.00,-0.0999
3096.00,-0.0999
3094.00,-0.0999
3092.00,-0.0999
3090.00,-0.1000
3088.00,-0.1000
3086.00,-0.1001
3084.00,-0.1002
3082.00,-0.1003
3080.00,-0.1003
3078.00,-0.1004
3076.00,-0.1004
3074.00,-0.1004
3072.00,-0.1004
3070.00,-0.1004
3068.00,-0.1003
3066.00,-0.1003
3064.00,-0.1003
3062.00,-0.1003
3060.00,-0.1003
3058.00,-0.1003
3056.00,-0.1003
3054.00,-0.1003
3052.00,-0.1003
3050.00,-0.1003
3048.00,-0.1003
3046.00,-0.1003
3044.00,-0.1003
3042.00,-0.1003
3040.00,-0.1003
3038.00,-0.1002
3036.00,-0.1002
3034.00,-0.1002
3032.00,-0.1001
3030.00,-0.1001
3028.00,-0.1001
3026.00,-0.1000
3024.00,-0.1000
3022.00,-0.0999
3020.00,-0.0998
3018.00,-0.0997
3016.00,-0.0995
3014.00,-0.0993
3012.00,-0.0992
3010.00,-0.0990
3008.00,-0.0988
3006.00,-0.0986
3004.00,-0.0983
3002.00,-0.0980
3000.00,-0.0976
2998.00,-0.0972
2996.00,-0.0969
2994.00,-0.0970
2992.00,-0.0972
2990.00,-0.0974
2988.00,-0.0975
2986.00,-0.0975
2984.00,-0.0976
2982.00,-0.0977
2980.00,-0.0979
2978.00,-0.0981
2976.00,-0.0984
2974.00,-0.0986
2972.00,-0.0987
2970.00,-0.0988
2968.00,-0.0989
2966.00,-0.0990
2964.00,-0.0990
2962.00,-0.0990
2960.00,-0.0991
2958.00,-0.0991
2956.00,-0.0991
2954.00,-0.0991
2952.00,-0.0991
2950.00,-0.0992
2948.00,-0.0992
2946.00,-0.0992
2944.00,-0.0992
2942.00,-0.0993
2940.00,-0.0994
2938.00,-0.0994
2936.00,-0.0995
2934.00,-0.0996
2932.00,-0.0997
2930.00,-0.0998
2928.00,-0.0998
2926.00,-0.0999
2924.00,-0.0999
2922.00,-0.1000
2920.00,-0.1000
2918.00,-0.0999
2916.00,-0.0999
2914.00,-0.0998
2912.00,-0.0997
2910.00,-0.0997
2908.00,-0.0997
2906.00,-0.0997
2904.00,-0.0997
2902.00,-0.0997
2900.00,-0.0998
2898.00,-0.0998
2896.00,-0.0999
2894.00,-0.0999
2892.00,-0.1000
2890.00,-0.1000
2888.00,-0.1000
2886.00,-0.1001
2884.00,-0.1001
2882.00,-0.1000
2880.00,-0.1000
2878.00,-0.1000
2876.00,-0.1001
2874.00,-0.1001
2872.00,-0.1002
2870.00,-0.1002
2868.00,-0.1003
2866.00,-0.1003
2864.00,-0.1003
2862.00,-0.1004
2860.00,-0.1004
2858.00,-0.1004
2856.00,-0.1004
2854.00,-0.1004
2852.00,-0.1004
2850.00,-0.1004
2848.00,-0.1003
2846.00,-0.1003
2844.00,-0.1003
2842.00,-0.1003
2840.00,-0.1003
2838.00,-0.1003
2836.00,-0.1003
2834.00,-0.1004
2832.00,-0.1004
2830.00,-0.1004
2828.00,-0.1004
2826.00,-0.1004
2824.00,-0.1003
2822.00,-0.1003
2820.00,-0.1003
2818.00,-0.1002
2816.00,-0.1002
2814.00,-0.1002
2812.00,-0.1002
2810.00,-0.1002
2808.00,-0.1002
2806.00,-0.1002
2804.00,-0.1002
2802.00,-0.1003
2800.00,-0.1003
2798.00,-0.1003
2796.00,-0.1003
2794.00,-0.1003
2792.00,-0.1002
2790.00,-0.1002
2788.00,-0.1001
2786.00,-0.1001
2784.00,-0.1001
2782.00,-0.1000
2780.00,-0.1000
2778.00,-0.1000
2776.00,-0.1000
2774.00,-0.1000
2772.00,-0.1000
2770.00,-0.1000
2768.00,-0.1000
2766.00,-0.1000
2764.00,-0.1000
2762.00,-0.1000
2760.00,-0.1000
2758.00,-0.1000
2756.00,-0.0999
2754.00,-0.0999
2752.00,-0.0999
2750.00,-0.0999
2748.00,-0.0999
2746.00,-0.0999
2744.00,-0.1000
2742.00,-0.1000
2740.00,-0.1000
2738.00,-0.1000
2736.00,-0.1001
2734.00,-0.1001
2732.00,-0.1000
2730.00,-0.1000
2728.00,-0.0999
2726.00,-0.0999
2724.00,-0.0998
2722.00,-0.0997
2720.00,-0.0997
2718.00,-0.0996
2716.00,-0.0996
2714.00,-0.0996
2712.00,-0.0996
2710.00,-0.0996
2708.00,-0.0996
2706.00,-0.0996
2704.00,-0.0996
2702.00,-0.0996
2700.00,-0.0996
2698.00,-0.0996
2696.00,-0.0995
2694.00,-0.0995
2692.00,-0.0995
2690.00,-0.0995
2688.00,-0.0994
2686.00,-0.0995
2684.00,-0.0995
2682.00,-0.0995
2680.00,-0.0995
2678.00,-0.0996
2676.00,-0.0996
2674.00,-0.0996
2672.00,-0.0996
2670.00,-0.0996
2668.00,-0.0996
2666.00,-0.0996
2664.00,-0.0995
2662.00,-0.0994
2660.00,-0.0994
2658.00,-0.0993
2656.00,-0.0993
2654.00,-0.0992
2652.00,-0.0992
2650.00,-0.0992
2648.00,-0.0992
2646.00,-0.0992
2644.00,-0.0992
2642.00,-0.0992
2640.00,-0.0992
2638.00,-0.0991
2636.00,-0.0991
2634.00,-0.0991
2632.00,-0.0991
2630.00,-0.0990
2628.00,-0.0990
2626.00,-0.0990
2624.00,-0.0990
2622.00,-0.0991
2620.00,-0.0991
2618.00,-0.0991
2616.00,-0.0992
2614.00,-0.0992
2612.00,-0.0992
2610.00,-0.0993
2608.00,-0.0993
2606.00,-0.0993
2604.00,-0.0993
2602.00,-0.0992
2600.00,-0.0992
2598.00,-0.0992
2596.00,-0.0992
2594.00,-0.0992
2592.00,-0.0991
2590.00,-0.0991
2588.00,-0.0992
2586.00,-0.0992
2584.00,-0.0992
2582.00,-0.0992
2580.00,-0.0992
2578.00,-0.0992
2576.00,-0.0992
2574.00,-0.0992
2572.00,-0.0991
2570.00,-0.0991
2568.00,-0.0990
2566.00,-0.0990
2564.00,-0.0990
2562.00,-0.0989
2560.00,-0.0989
2558.00,-0.0989
2556.00,-0.0989
2554.00,-0.0989
2552.00,-0.0989
2550.00,-0.0988
2548.00,-0.0988
2546.00,-0.0988
2544.00,-0.0988
2542.00,-0.0987
2540.00,-0.0987
2538.00,-0.0986
2536.00,-0.0986
2534.00,-0.0986
2532.00,-0.0986
2530.00,-0.0986
2528.00,-0.0986
2526.00,-0.0986
2524.00,-0.0986
2522.00,-0.0986
2520.00,-0.0985
2518.00,-0.0985
2516.00,-0.0985
2514.00,-0.0985
2512.00,-0.0984
2510.00,-0.0983
2508.00,-0.0983
2506.00,-0.0982
2504.00,-0.0981
2502.00,-0.0981
2500.00,-0.0980
2498.00,-0.0980
2496.00,-0.0980
2494.00,-0.0979
2492.00,-0.0979
2490.00,-0.0980
2488.00,-0.0980
2486.00,-0.0980
2484.00,-0.0979
2482.00,-0.0979
2480.00,-0.0979
2478.00,-0.0978
2476.00,-0.0978
2474.00,-0.0977
2472.00,-0.0977
2470.00,-0.0977
2468.00,-0.0976
2466.00,-0.0976
2464.00,-0.0976
2462.00,-0.0976
2460.00,-0.0976
2458.00,-0.0977
2456.00,-0.0977
2454.00,-0.0977
2452.00,-0.0977
2450.00,-0.0977
2448.00,-0.0977
2446.00,-0.0978
2444.00,-0.0978
2442.00,-0.0978
2440.00,-0.0978
2438.00,-0.0979
2436.00,-0.0979
2434.00,-0.0980
2432.00,-0.0980
2430.00,-0.0981
2428.00,-0.0982
2426.00,-0.0982
2424.00,-0.0983
2422.00,-0.0984
2420.00,-0.0984
2418.00,-0.0984
2416.00,-0.0984
2414.00,-0.0984
2412.00,-0.0984
2410.00,-0.0984
2408.00,-0.0984
2406.00,-0.0983
2404.00,-0.0983
2402.00,-0.0983
2400.00,-0.0982
2398.00,-0.0982
2396.00,-0.0982
2394.00,-0.0982
2392.00,-0.0982
2390.00,-0.0982
2388.00,-0.0982
2386.00,-0.0982
2384.00,-0.0982
2382.00,-0.0983
2380.00,-0.0984
2378.00,-0.0984
2376.00,-0.0984
2374.00,-0.0984
2372.00,-0.0983
2370.00,-0.0983
2368.00,-0.0983
2366.00,-0.0983
2364.00,-0.0983
2362.00,-0.0984
2360.00,-0.0984
2358.00,-0.0983
2356.00,-0.0983
2354.00,-0.0982
2352.00,-0.0982
2350.00,-0.0983
2348.00,-0.0984
2346.00,-0.0985
2344.00,-0.0985
2342.00,-0.0983
2340.00,-0.0982
2338.00,-0.0981
2336.00,-0.0981
2334.00,-0.0981
2332.00,-0.0981
2330.00,-0.0981
2328.00,-0.0980
2326.00,-0.0979
2324.00,-0.0978
2322.00,-0.0977
2320.00,-0.0976
2318.00,-0.0975
2316.00,-0.0975
2314.00,-0.0975
2312.00,-0.0974
2310.00,-0.0974
2308.00,-0.0973
2306.00,-0.0973
2304.00,-0.0974
2302.00,-0.0974
2300.00,-0.0974
2298.00,-0.0975
2296.00,-0.0975
2294.00,-0.0975
2292.00,-0.0975
2290.00,-0.0975
2288.00,-0.0975
2286.00,-0.0974
2284.00,-0.0974
2282.00,-0.0974
2280.00,-0.0974
2278.00,-0.0974
2276.00,-0.0974
2274.00,-0.0974
2272.00,-0.0975
2270.00,-0.0975
2268.00,-0.0975
2266.00,-0.0975
2264.00,-0.0975
2262.00,-0.0975
2260.00,-0.0975
2258.00,-0.0975
2256.00,-0.0975
2254.00,-0.0975
2252.00,-0.0974
2250.00,-0.0974
2248.00,-0.0974
2246.00,-0.0974
2244.00,-0.0974
2242.00,-0.0973
2240.00,-0.0973
2238.00,-0.0973
2236.00,-0.0973
2234.00,-0.0973
2232.00,-0.0972
2230.00,-0.0972
2228.00,-0.0971
2226.00,-0.0971
2224.00,-0.0970
2222.00,-0.0970
2220.00,-0.0969
2218.00,-0.0969
2216.00,-0.0969
2214.00,-0.0969
2212.00,-0.0969
2210.00,-0.0969
2208.00,-0.0969
2206.00,-0.0969
2204.00,-0.0969
2202.00,-0.0968
2200.00,-0.0968
2198.00,-0.0967
2196.00,-0.0967
2194.00,-0.0966
2192.00,-0.0966
2190.00,-0.0965
2188.00,-0.0964
2186.00,-0.0964
2184.00,-0.0964
2182.00,-0.0963
2180.00,-0.0963
2178.00,-0.0964
2176.00,-0.0964
2174.00,-0.0964
2172.00,-0.0965
2170.00,-0.0965
2168.00,-0.0965
2166.00,-0.0965
2164.00,-0.0966
2162.00,-0.0966
2160.00,-0.0966
2158.00,-0.0966
2156.00,-0.0966
2154.00,-0.0966
2152.00,-0.0966
2150.00,-0.0966
2148.00,-0.0966
2146.00,-0.0966
2144.00,-0.0966
2142.00,-0.0966
2140.00,-0.0966
2138.00,-0.0965
2136.00,-0.0965
2134.00,-0.0964
2132.00,-0.0964
2130.00,-0.0963
2128.00,-0.0963
2126.00,-0.0963
2124.00,-0.0963
2122.00,-0.0963
2120.00,-0.0963
2118.00,-0.0963
2116.00,-0.0963
2114.00,-0.0963
2112.00,-0.0963
2110.00,-0.0963
2108.00,-0.0963
2106.00,-0.0963
2104.00,-0.0962
2102.00,-0.0962
2100.00,-0.0962
2098.00,-0.0962
2096.00,-0.0961
2094.00,-0.0961
2092.00,-0.0961
2090.00,-0.0961
2088.00,-0.0962
2086.00,-0.0962
2084.00,-0.0962
2082.00,-0.0963
2080.00,-0.0963
2078.00,-0.0963
2076.00,-0.0963
2074.00,-0.0964
2072.00,-0.0964
2070.00,-0.0963
2068.00,-0.0963
2066.00,-0.0963
2064.00,-0.0963
2062.00,-0.0963
2060.00,-0.0962
2058.00,-0.0962
2056.00,-0.0962
2054.00,-0.0962
2052.00,-0.0962
2050.00,-0.0962
2048.00,-0.0963
2046.00,-0.0963
2044.00,-0.0963
2042.00,-0.0963
2040.00,-0.0964
2038.00,-0.0964
2036.00,-0.0964
2034.00,-0.0964
2032.00,-0.0964
2030.00,-0.0964
2028.00,-0.0963
2026.00,-0.0963
2024.00,-0.0963
2022.00,-0.0963
2020.00,-0.0962
2018.00,-0.0962
2016.00,-0.0962
2014.00,-0.0962
2012.00,-0.0962
2010.00,-0.0962
2008.00,-0.0962
2006.00,-0.0962
2004.00,-0.0962
2002.00,-0.0963
2000.00,-0.0963
1998.00,-0.0964
1996.00,-0.0965
1994.00,-0.0966
1992.00,-0.0967
1990.00,-0.0968
1988.00,-0.0969
1986.00,-0.0970
1984.00,-0.0971
1982.00,-0.0972
1980.00,-0.0972
1978.00,-0.0973
1976.00,-0.0973
1974.00,-0.0972
1972.00,-0.0972
1970.00,-0.0971
1968.00,-0.0970
1966.00,-0.0970
1964.00,-0.0970
1962.00,-0.0970
1960.00,-0.0971
1958.00,-0.0972
1956.00,-0.0974
1954.00,-0.0975
1952.00,-0.0977
1950.00,-0.0978
1948.00,-0.0979
1946.00,-0.0979
1944.00,-0.0978
1942.00,-0.0977
1940.00,-0.0976
1938.00,-0.0975
1936.00,-0.0973
1934.00,-0.0971
1932.00,-0.0970
1930.00,-0.0969
1928.00,-0.0968
1926.00,-0.0968
1924.00,-0.0968
1922.00,-0.0968
1920.00,-0.0968
1918.00,-0.0968
1916.00,-0.0968
1914.00,-0.0968
1912.00,-0.0967
1910.00,-0.0967
1908.00,-0.0966
1906.00,-0.0966
1904.00,-0.0965
1902.00,-0.0965
1900.00,-0.0965
1898.00,-0.0965
1896.00,-0.0965
1894.00,-0.0966
1892.00,-0.0966
1890.00,-0.0967
1888.00,-0.0967
1886.00,-0.0968
1884.00,-0.0968
1882.00,-0.0969
1880.00,-0.0970
1878.00,-0.0970
1876.00,-0.0971
1874.00,-0.0971
1872.00,-0.0972
1870.00,-0.0971
1868.00,-0.0971
1866.00,-0.0971
1864.00,-0.0971
1862.00,-0.0971
1860.00,-0.0972
1858.00,-0.0972
1856.00,-0.0973
1854.00,-0.0974
1852.00,-0.0975
1850.00,-0.0977
1848.00,-0.0977
1846.00,-0.0978
1844.00,-0.0978
1842.00,-0.0979
1840.00,-0.0979
1838.00,-0.0979
1836.00,-0.0979
1834.00,-0.0979
1832.00,-0.0979
1830.00,-0.0978
1828.00,-0.0979
1826.00,-0.0979
1824.00,-0.0980
1822.00,-0.0980
1820.00,-0.0981
1818.00,-0.0982
1816.00,-0.0982
1814.00,-0.0983
1812.00,-0.0983
1810.00,-0.0984
1808.00,-0.0985
1806.00,-0.0985
1804.00,-0.0985
1802.00,-0.0986
1800.00,-0.0986
1798.00,-0.0986
1796.00,-0.0985
1794.00,-0.0983
1792.00,-0.0980
1790.00,-0.0976
1788.00,-0.0970
1786.00,-0.0963
1784.00,-0.0954
1782.00,-0.0943
1780.00,-0.0929
1778.00,-0.0912
1776.00,-0.0893
1774.00,-0.0872
1772.00,-0.0851
1770.00,-0.0844
1768.00,-0.0854
1766.00,-0.0868
1764.00,-0.0871
1762.00,-0.0862
1760.00,-0.0854
1758.00,-0.0854
1756.00,-0.0866
1754.00,-0.0882
1752.00,-0.0900
1750.00,-0.0919
1748.00,-0.0934
1746.00,-0.0946
1744.00,-0.0956
1742.00,-0.0964
1740.00,-0.0971
1738.00,-0.0977
1736.00,-0.0981
1734.00,-0.0985
1732.00,-0.0987
1730.00,-0.0988
1728.00,-0.0990
1726.00,-0.0991
1724.00,-0.0992
1722.00,-0.0992
1720.00,-0.0992
1718.00,-0.0993
1716.00,-0.0993
1714.00,-0.0993
1712.00,-0.0993
1710.00,-0.0994
1708.00,-0.0994
1706.00,-0.0994
1704.00,-0.0994
1702.00,-0.0995
1700.00,-0.0994
1698.00,-0.0994
1696.00,-0.0994
1694.00,-0.0994
1692.00,-0.0994
1690.00,-0.0994
1688.00,-0.0994
1686.00,-0.0994
1684.00,-0.0994
1682.00,-0.0994
1680.00,-0.0994
1678.00,-0.0994
1676.00,-0.0994
1674.00,-0.0994
1672.00,-0.0994
1670.00,-0.0993
1668.00,-0.0993
1666.00,-0.0993
1664.00,-0.0992
1662.00,-0.0992
1660.00,-0.0992
1658.00,-0.0991
1656.00,-0.0991
1654.00,-0.0990
1652.00,-0.0990
1650.00,-0.0991
1648.00,-0.0991
1646.00,-0.0991
1644.00,-0.0992
1642.00,-0.0993
1640.00,-0.0994
1638.00,-0.0994
1636.00,-0.0994
1634.00,-0.0994
1632.00,-0.0993
1630.00,-0.0993
1628.00,-0.0992
1626.00,-0.0992
1624.00,-0.0992
1622.00,-0.0992
1620.00,-0.0991
1618.00,-0.0991
1616.00,-0.0991
1614.00,-0.0992
1612.00,-0.0992
1610.00,-0.0993
1608.00,-0.0994
1606.00,-0.0995
1604.00,-0.0995
1602.00,-0.0995
1600.00,-0.0995
1598.00,-0.0995
1596.00,-0.0994
1594.00,-0.0994
1592.00,-0.0994
1590.00,-0.0994
1588.00,-0.0994
1586.00,-0.0994
1584.00,-0.0994
1582.00,-0.0995
1580.00,-0.0995
1578.00,-0.0994
1576.00,-0.0994
1574.00,-0.0994
1572.00,-0.0994
1570.00,-0.0993
1568.00,-0.0993
1566.00,-0.0992
1564.00,-0.0991
1562.00,-0.0990
1560.00,-0.0990
1558.00,-0.0989
1556.00,-0.0990
1554.00,-0.0990
1552.00,-0.0991
1550.00,-0.0992
1548.00,-0.0993
1546.00,-0.0994
1544.00,-0.0994
1542.00,-0.0994
1540.00,-0.0995
1538.00,-0.0995
1536.00,-0.0994
1534.00,-0.0993
1532.00,-0.0993
1530.00,-0.0992
1528.00,-0.0991
1526.00,-0.0991
1524.00,-0.0991
1522.00,-0.0990
1520.00,-0.0990
1518.00,-0.0990
1516.00,-0.0990
1514.00,-0.0990
1512.00,-0.0990
1510.00,-0.0991
1508.00,-0.0991
1506.00,-0.0990
1504.00,-0.0990
1502.00,-0.0990
1500.00,-0.0990
1498.00,-0.0990
1496.00,-0.0989
1494.00,-0.0989
1492.00,-0.0989
1490.00,-0.0989
1488.00,-0.0989
1486.00,-0.0989
1484.00,-0.0988
1482.00,-0.0988
1480.00,-0.0987
1478.00,-0.0987
1476.00,-0.0987
1474.00,-0.0987
1472.00,-0.0987
1470.00,-0.0987
1468.00,-0.0987
1466.00,-0.0986
1464.00,-0.0987
1462.00,-0.0987
1460.00,-0.0987
1458.00,-0.0986
1456.00,-0.0986
1454.00,-0.0986
1452.00,-0.0986
1450.00,-0.0987
1448.00,-0.0987
1446.00,-0.0987
1444.00,-0.0987
1442.00,-0.0987
1440.00,-0.0987
1438.00,-0.0986
1436.00,-0.0987
1434.00,-0.0987
1432.00,-0.0988
1430.00,-0.0988
1428.00,-0.0988
1426.00,-0.0989
1424.00,-0.0989
1422.00,-0.0989
1420.00,-0.0989
1418.00,-0.0989
1416.00,-0.0989
1414.00,-0.0989
1412.00,-0.0988
1410.00,-0.0987
1408.00,-0.0986
1406.00,-0.0985
1404.00,-0.0985
1402.00,-0.0984
1400.00,-0.0984
1398.00,-0.0982
1396.00,-0.0981
1394.00,-0.0978
1392.00,-0.0974
1390.00,-0.0969
1388.00,-0.0962
1386.00,-0.0957
1384.00,-0.0953
1382.00,-0.0952
1380.00,-0.0953
1378.00,-0.0953
1376.00,-0.0952
1374.00,-0.0952
1372.00,-0.0953
1370.00,-0.0956
1368.00,-0.0960
1366.00,-0.0966
1364.00,-0.0971
1362.00,-0.0976
1360.00,-0.0980
1358.00,-0.0983
1356.00,-0.0984
1354.00,-0.0986
1352.00,-0.0988
1350.00,-0.0990
1348.00,-0.0991
1346.00,-0.0992
1344.00,-0.0993
1342.00,-0.0993
1340.00,-0.0994
1338.00,-0.0994
1336.00,-0.0994
1334.00,-0.0994
1332.00,-0.0994
1330.00,-0.0993
1328.00,-0.0993
1326.00,-0.0992
1324.00,-0.0991
1322.00,-0.0990
1320.00,-0.0988
1318.00,-0.0987
1316.00,-0.0987
1314.00,-0.0986
1312.00,-0.0985
1310.00,-0.0985
1308.00,-0.0985
1306.00,-0.0985
1304.00,-0.0985
1302.00,-0.0985
1300.00,-0.0986
1298.00,-0.0986
1296.00,-0.0987
1294.00,-0.0987
1292.00,-0.0987
1290.00,-0.0987
1288.00,-0.0987
1286.00,-0.0986
1284.00,-0.0984
1282.00,-0.0982
1280.00,-0.0979
1278.00,-0.0975
1276.00,-0.0970
1274.00,-0.0966
1272.00,-0.0964
1270.00,-0.0962
1268.00,-0.0957
1266.00,-0.0951
1264.00,-0.0941
1262.00,-0.0925
1260.00,-0.0905
1258.00,-0.0885
1256.00,-0.0864
1254.00,-0.0841
1252.00,-0.0814
1250.00,-0.0785
1248.00,-0.0765
1246.00,-0.0760
1244.00,-0.0763
1242.00,-0.0763
1240.00,-0.0767
1238.00,-0.0782
1236.00,-0.0797
1234.00,-0.0813
1232.00,-0.0832
1230.00,-0.0856
1228.00,-0.0881
1226.00,-0.0904
1224.00,-0.0923
1222.00,-0.0938
1220.00,-0.0948
1218.00,-0.0956
1216.00,-0.0961
1214.00,-0.0966
1212.00,-0.0970
1210.00,-0.0973
1208.00,-0.0976
1206.00,-0.0978
1204.00,-0.0980
1202.00,-0.0982
1200.00,-0.0984
1198.00,-0.0985
1196.00,-0.0986
1194.00,-0.0987
1192.00,-0.0988
1190.00,-0.0988
1188.00,-0.0988
1186.00,-0.0989
1184.00,-0.0989
1182.00,-0.0989
1180.00,-0.0989
1178.00,-0.0989
1176.00,-0.0989
1174.00,-0.0989
1172.00,-0.0989
1170.00,-0.0989
1168.00,-0.0989
1166.00,-0.0988
1164.00,-0.0988
1162.00,-0.0988
1160.00,-0.0988
1158.00,-0.0988
1156.00,-0.0988
1154.00,-0.0988
1152.00,-0.0988
1150.00,-0.0988
1148.00,-0.0988
1146.00,-0.0988
1144.00,-0.0988
1142.00,-0.0988
1140.00,-0.0987
1138.00,-0.0987
1136.00,-0.0987
1134.00,-0.0987
1132.00,-0.0986
1130.00,-0.0986
1128.00,-0.0985
1126.00,-0.0984
1124.00,-0.0984
1122.00,-0.0984
1120.00,-0.0983
1118.00,-0.0982
1116.00,-0.0980
1114.00,-0.0978
1112.00,-0.0976
1110.00,-0.0975
1108.00,-0.0975
1106.00,-0.0974
1104.00,-0.0973
1102.00,-0.0973
1100.00,-0.0973
1098.00,-0.0973
1096.00,-0.0973
1094.00,-0.0973
1092.00,-0.0974
1090.00,-0.0974
1088.00,-0.0974
1086.00,-0.0974
1084.00,-0.0974
1082.00,-0.0972
1080.00,-0.0971
1078.00,-0.0969
1076.00,-0.0966
1074.00,-0.0962
1072.00,-0.0957
1070.00,-0.0951
1068.00,-0.0942
1066.00,-0.0934
1064.00,-0.0928
1062.00,-0.0924
1060.00,-0.0921
1058.00,-0.0920
1056.00,-0.0920
1054.00,-0.0921
1052.00,-0.0923
1050.00,-0.0926
1048.00,-0.0932
1046.00,-0.0938
1044.00,-0.0945
1042.00,-0.0952
1040.00,-0.0959
1038.00,-0.0965
1036.00,-0.0970
1034.00,-0.0974
1032.00,-0.0978
1030.00,-0.0980
1028.00,-0.0983
1026.00,-0.0984
1024.00,-0.0985
1022.00,-0.0987
1020.00,-0.0988
1018.00,-0.0988
1016.00,-0.0989
1014.00,-0.0989
1012.00,-0.0989
1010.00,-0.0990
1008.00,-0.0990
1006.00,-0.0990
1004.00,-0.0990
1002.00,-0.0991
1000.00,-0.0992
998.00,-0.0992
996.00,-0.0992
994.00,-0.0993
992.00,-0.0993
990.00,-0.0994
988.00,-0.0995
986.00,-0.0995
984.00,-0.0996
982.00,-0.0996
980.00,-0.0997
978.00,-0.0997
976.00,-0.0997
974.00,-0.0998
972.00,-0.0998
970.00,-0.0998
968.00,-0.0999
966.00,-0.0999
964.00,-0.1000
962.00,-0.1000
960.00,-0.1000
958.00,-0.1000
956.00,-0.1000
954.00,-0.1000
952.00,-0.0999
950.00,-0.0999
948.00,-0.0998
946.00,-0.0998
944.00,-0.0997
942.00,-0.0998
940.00,-0.0998
938.00,-0.0998
936.00,-0.0998
934.00,-0.0998
932.00,-0.0997
930.00,-0.0997
928.00,-0.0997
926.00,-0.0998
924.00,-0.0998
922.00,-0.0999
920.00,-0.0999
918.00,-0.0999
916.00,-0.0999
914.00,-0.0999
912.00,-0.1000
910.00,-0.1000
908.00,-0.1001
906.00,-0.1002
904.00,-0.1003
902.00,-0.1003
900.00,-0.1003
898.00,-0.1004
896.00,-0.1004
894.00,-0.1004
892.00,-0.1004
890.00,-0.1004
888.00,-0.1004
886.00,-0.1005
884.00,-0.1004
882.00,-0.1004
880.00,-0.1004
878.00,-0.1004
876.00,-0.1004
874.00,-0.1004
872.00,-0.1004
870.00,-0.1004
868.00,-0.1004
866.00,-0.1003
864.00,-0.1002
862.00,-0.1002
860.00,-0.1002
858.00,-0.1001
856.00,-0.1001
854.00,-0.1001
852.00,-0.1001
850.00,-0.1001
848.00,-0.1001
846.00,-0.1001
844.00,-0.1001
842.00,-0.1002
840.00,-0.1002
838.00,-0.1002
836.00,-0.1002
834.00,-0.1003
832.00,-0.1003
830.00,-0.1003
828.00,-0.1003
826.00,-0.1003
824.00,-0.1003
822.00,-0.1003
820.00,-0.1003
818.00,-0.1003
816.00,-0.1003
814.00,-0.1003
812.00,-0.1003
810.00,-0.1003
808.00,-0.1003
806.00,-0.1003
804.00,-0.1003
802.00,-0.1003
800.00,-0.1003
798.00,-0.1003
796.00,-0.1003
794.00,-0.1002
792.00,-0.1002
790.00,-0.1003
788.00,-0.1002
786.00,-0.1003
784.00,-0.1003
782.00,-0.1003
780.00,-0.1003
778.00,-0.1003
776.00,-0.1004
774.00,-0.1004
772.00,-0.1004
770.00,-0.1004
768.00,-0.1004
766.00,-0.1004
764.00,-0.1004
762.00,-0.1004
760.00,-0.1004
758.00,-0.1004
756.00,-0.1004
754.00,-0.1004
752.00,-0.1004
750.00,-0.1004
748.00,-0.1004
746.00,-0.1004
744.00,-0.1004
742.00,-0.1004
740.00,-0.1004
738.00,-0.1004
736.00,-0.1004
734.00,-0.1003
732.00,-0.1003
730.00,-0.1003
728.00,-0.1003
726.00,-0.1003
724.00,-0.1003
722.00,-0.1004
720.00,-0.1004
718.00,-0.1004
716.00,-0.1004
714.00,-0.1003
712.00,-0.1003
710.00,-0.1003
708.00,-0.1003
706.00,-0.1003
704.00,-0.1003
702.00,-0.1003
700.00,-0.1003
698.00,-0.1003
696.00,-0.1003
694.00,-0.1003
692.00,-0.1003
690.00,-0.1003
688.00,-0.1003
686.00,-0.1003
684.00,-0.1003
682.00,-0.1003
680.00,-0.1003
678.00,-0.1003
676.00,-0.1003
674.00,-0.1002
672.00,-0.1003
670.00,-0.1006
668.00,-0.1004
666.00,-0.0999
664.00,-0.1000
662.00,-0.1001
660.00,-0.1001
658.00,-0.1001
656.00,-0.1001
654.00,-0.1000
652.00,-0.1000
650.00,-0.1000
648.00,-0.0999
646.00,-0.0997
644.00,-0.0996
642.00,-0.0995
640.00,-0.0994
638.00,-0.0992
636.00,-0.0992
634.00,-0.0992
632.00,-0.0992
630.00,-0.0991
628.00,-0.0990
626.00,-0.0990
624.00,-0.0991
622.00,-0.0991
620.00,-0.0992
618.00,-0.0992
616.00,-0.0992
614.00,-0.0993
612.00,-0.0992
610.00,-0.0991
608.00,-0.0991
606.00,-0.0990
604.00,-0.0991
602.00,-0.0992
600.00,-0.0993
598.00,-0.0993
596.00,-0.0994
594.00,-0.0995
592.00,-0.0994
590.00,-0.0994
588.00,-0.0995
586.00,-0.0995
584.00,-0.0995
582.00,-0.0995
580.00,-0.0994
578.00,-0.0993
576.00,-0.0993
574.00,-0.0993
572.00,-0.0992
570.00,-0.0993
568.00,-0.0993
566.00,-0.0991
564.00,-0.0991
562.00,-0.0992
560.00,-0.0992
558.00,-0.0991
556.00,-0.0992
554.00,-0.0992
552.00,-0.0992
550.00,-0.0992
548.00,-0.0992
546.00,-0.0993
544.00,-0.0993
542.00,-0.0993
540.00,-0.0993
538.00,-0.0993
536.00,-0.0995
534.00,-0.0995
532.00,-0.0996
530.00,-0.0997
528.00,-0.0998
526.00,-0.0998
524.00,-0.0998
522.00,-0.0998
520.00,-0.0999
518.00,-0.1000
516.00,-0.1001
514.00,-0.1000
512.00,-0.1002
510.00,-0.1003
508.00,-0.1002
506.00,-0.1001
504.00,-0.1003
502.00,-0.1004
500.00,-0.1005
