Created as New Dataset,Sample 058 By Analyst Date Wednesday, April 02 2025
cm-1,A
4000.00,-0.1003
3998.00,-0.1003
3996.00,-0.1003
3994.00,-0.1003
3992.00,-0.1003
3990.00,-0.1003
3988.00,-0.1003
3986.00,-0.1002
3984.00,-0.1002
3982.00,-0.1002
3980.00,-0.1002
3978.00,-0.1001
3976.00,-0.1001
3974.00,-0.1000
3972.00,-0.1000
3970.00,-0.1000
3968.00,-0.1000
3966.00,-0.1000
3964.00,-0.1000
3962.00,-0.1000
3960.00,-0.1000
3958.00,-0.1000
3956.00,-0.1000
3954.00,-0.1000
3952.00,-0.1000
3950.00,-0.0999
3948.00,-0.0999
3946.00,-0.0999
3944.00,-0.0998
3942.00,-0.0998
3940.00,-0.0998
3938.00,-0.0998
3936.00,-0.0998
3934.00,-0.0998
3932.00,-0.0998
3930.00,-0.0998
3928.00,-0.0997
3926.00,-0.0997
3924.00,-0.0997
3922.00,-0.0997
3920.00,-0.0996
3918.00,-0.0996
3916.00,-0.0996
3914.00,-0.0995
3912.00,-0.0995
3910.00,-0.0995
3908.00,-0.0995
3906.00,-0.0994
3904.00,-0.0993
3902.00,-0.0993
3900.00,-0.0993
3898.00,-0.0993
3896.00,-0.0994
3894.00,-0.0995
3892.00,-0.0995
3890.00,-0.0994
3888.00,-0.0994
3886.00,-0.0993
3884.00,-0.0993
3882.00,-0.0993
3880.00,-0.0993
3878.00,-0.0993
3876.00,-0.0993
3874.00,-0.0993
3872.00,-0.0993
3870.00,-0.0993
3868.00,-0.0993
3866.00,-0.0992
3864.00,-0.0993
3862.00,-0.0993
3860.00,-0.0993
3858.00,-0.0993
3856.00,-0.0992
3854.00,-0.0991
3852.00,-0.0990
3850.00,-0.0990
3848.00,-0.0990
3846.00,-0.0991
3844.00,-0.0991
3842.00,-0.0991
3840.00,-0.0991
3838.00,-0.0990
3836.00,-0.0990
3834.00,-0.0990
3832.00,-0.0990
3830.00,-0.0991
3828.00,-0.0991
3826.00,-0.0990
3824.00,-0.0990
3822.00,-0.0988
3820.00,-0.0988
3818.00,-0.0987
3816.00,-0.0987
3814.00,-0.0987
3812.00,-0.0988
3810.00,-0.0988
3808.00,-0.0988
3806.00,-0.0988
3804.00,-0.0988
3802.00,-0.0987
3800.00,-0.0987
3798.00,-0.0987
3796.00,-0.0987
3794.00,-0.0988
3792.00,-0.0988
3790.00,-0.0988
3788.00,-0.0988
3786.00,-0.0988
3784.00,-0.0988
3782.00,-0.0988
3780.00,-0.0988
3778.00,-0.0988
3776.00,-0.0988
3774.00,-0.0988
3772.00,-0.0989
3770.00,-0.0989
3768.00,-0.0988
3766.00,-0.0988
3764.00,-0.0988
3762.00,-0.0988
3760.00,-0.0988
3758.00,-0.0987
3756.00,-0.0986
3754.00,-0.0985
3752.00,-0.0984
3750.00,-0.0983
3748.00,-0.0982
3746.00,-0.0981
3744.00,-0.0981
3742.00,-0.0982
3740.00,-0.0982
3738.00,-0.0981
3736.00,-0.0981
3734.00,-0.0981
3732.00,-0.0981
3730.00,-0.0980
3728.00,-0.0980
3726.00,-0.0980
3724.00,-0.0980
3722.00,-0.0980
3720.00,-0.0980
3718.00,-0.0980
3716.00,-0.0981
3714.00,-0.0981
3712.00,-0.0981
3710.00,-0.0982
3708.00,-0.0983
3706.00,-0.0984
3704.00,-0.0985
3702.00,-0.0986
3700.00,-0.0987
3698.00,-0.0988
3696.00,-0.0989
3694.00,-0.0989
3692.00,-0.0990
3690.00,-0.0990
3688.00,-0.0990
3686.00,-0.0992
3684.00,-0.0993
3682.00,-0.0994
3680.00,-0.0995
3678.00,-0.0995
3676.00,-0.0994
3674.00,-0.0993
3672.00,-0.0993
3670.00,-0.0993
3668.00,-0.0993
3666.00,-0.0994
3664.00,-0.0994
3662.00,-0.0994
3660.00,-0.0994
3658.00,-0.0993
3656.00,-0.0992
3654.00,-0.0991
3652.00,-0.0990
3650.00,-0.0989
3648.00,-0.0988
3646.00,-0.0989
3644.00,-0.0989
3642.00,-0.0990
3640.00,-0.0991
3638.00,-0.0990
3636.00,-0.0990
3634.00,-0.0989
3632.00,-0.0988
3630.00,-0.0988
3628.00,-0.0987
3626.00,-0.0987
3624.00,-0.0988
3622.00,-0.0989
3620.00,-0.0990
3618.00,-0.0990
3616.00,-0.0990
3614.00,-0.0990
3612.00,-0.0990
3610.00,-0.0990
3608.00,-0.0990
3606.00,-0.0990
3604.00,-0.0991
3602.00,-0.0991
3600.00,-0.0991
3598.00,-0.0991
3596.00,-0.0991
3594.00,-0.0991
3592.00,-0.0991
3590.00,-0.0990
3588.00,-0.0991
3586.00,-0.0991
3584.00,-0.0991
3582.00,-0.0992
3580.00,-0.0993
3578.00,-0.0994
3576.00,-0.0994
3574.00,-0.0994
3572.00,-0.0994
3570.00,-0.0993
3568.00,-0.0992
3566.00,-0.0993
3564.00,-0.0993
3562.00,-0.0994
3560.00,-0.0994
3558.00,-0.0995
3556.00,-0.0996
3554.00,-0.0996
3552.00,-0.0996
3550.00,-0.0996
3548.00,-0.0996
3546.00,-0.0995
3544.00,-0.0995
3542.00,-0.0995
3540.00,-0.0995
3538.00,-0.0995
3536.00,-0.0995
3534.00,-0.0994
3532.00,-0.0994
3530.00,-0.0994
3528.00,-0.0994
3526.00,-0.0994
3524.00,-0.0994
3522.00,-0.0994
3520.00,-0.0994
3518.00,-0.0994
3516.00,-0.0994
3514.00,-0.0994
3512.00,-0.0994
3510.00,-0.0993
3508.00,-0.0993
3506.00,-0.0993
3504.00,-0.0992
3502.00,-0.0992
3500.00,-0.0993
3498.00,-0.0993
3496.00,-0.0994
3494.00,-0.0994
3492.00,-0.0995
3490.00,-0.0995
3488.00,-0.0996
3486.00,-0.0996
3484.00,-0.0996
3482.00,-0.0996
3480.00,-0.0997
3478.00,-0.0997
3476.00,-0.0997
3474.00,-0.0997
3472.00,-0.0997
3470.00,-0.0997
3468.00,-0.0997
3466.00,-0.0998
3464.00,-0.0999
3462.00,-0.0999
3460.00,-0.1000
3458.00,-0.1000
3456.00,-0.1001
3454.00,-0.1001
3452.00,-0.1001
3450.00,-0.1001
3448.00,-0.1001
3446.00,-0.1001
3444.00,-0.1001
3442.00,-0.1002
3440.00,-0.1002
3438.00,-0.1002
3436.00,-0.1002
3434.00,-0.1002
3432.00,-0.1003
3430.00,-0.1003
3428.00,-0.1004
3426.00,-0.1004
3424.00,-0.1004
3422.00,-0.1003
3420.00,-0.1003
3418.00,-0.1002
3416.00,-0.1002
3414.00,-0.1001
3412.00,-0.1000
3410.00,-0.0999
3408.00,-0.0998
3406.00,-0.0998
3404.00,-0.0997
3402.00,-0.0996
3400.00,-0.0995
3398.00,-0.0995
3396.00,-0.0995
3394.00,-0.0994
3392.00,-0.0994
3390.00,-0.0994
3388.00,-0.0993
3386.00,-0.0993
3384.00,-0.0992
3382.00,-0.0992
3380.00,-0.0991
3378.00,-0.0991
3376.00,-0.0990
3374.00,-0.0990
3372.00,-0.0990
3370.00,-0.0990
3368.00,-0.0990
3366.00,-0.0990
3364.00,-0.0990
3362.00,-0.0990
3360.00,-0.0990
3358.00,-0.0990
3356.00,-0.0989
3354.00,-0.0989
3352.00,-0.0989
3350.00,-0.0989
3348.00,-0.0989
3346.00,-0.0989
3344.00,-0.0989
3342.00,-0.0990
3340.00,-0.0990
3338.00,-0.0990
3336.00,-0.0991
3334.00,-0.0991
3332.00,-0.0992
3330.00,-0.0992
3328.00,-0.0992
3326.00,-0.0992
3324.00,-0.0992
3322.00,-0.0992
3320.00,-0.0992
3318.00,-0.0993
3316.00,-0.0993
3314.00,-0.0993
3312.00,-0.0994
3310.00,-0.0995
3308.00,-0.0996
3306.00,-0.0997
3304.00,-0.0999
3302.00,-0.0999
3300.00,-0.1000
3298.00,-0.0999
3296.00,-0.0998
3294.00,-0.0996
3292.00,-0.0995
3290.00,-0.0994
3288.00,-0.0993
3286.00,-0.0991
3284.00,-0.0990
3282.00,-0.0990
3280.00,-0.0989
3278.00,-0.0989
3276.00,-0.0988
3274.00,-0.0988
3272.00,-0.0987
3270.00,-0.0987
3268.00,-0.0987
3266.00,-0.0987
3264.00,-0.0987
3262.00,-0.0987
3260.00,-0.0987
3258.00,-0.0987
3256.00,-0.0986
3254.00,-0.0986
3252.00,-0.0986
3250.00,-0.0986
3248.00,-0.0986
3246.00,-0.0987
3244.00,-0.0987
3242.00,-0.0988
3240.00,-0.0988
3238.00,-0.0988
3236.00,-0.0988
3234.00,-0.0989
3232.00,-0.0989
3230.00,-0.0989
3228.00,-0.0989
3226.00,-0.0989
3224.00,-0.0989
3222.00,-0.0989
3220.00,-0.0990
3218.00,-0.0990
3216.00,-0.0990
3214.00,-0.0991
3212.00,-0.0991
3210.00,-0.0992
3208.00,-0.0992
3206.00,-0.0993
3204.00,-0.0993
3202.00,-0.0993
3200.00,-0.0993
3198.00,-0.0993
3196.00,-0.0993
3194.00,-0.0993
3192.00,-0.0993
3190.00,-0.0992
3188.00,-0.0992
3186.00,-0.0992
3184.00,-0.0993
3182.00,-0.0993
3180.00,-0.0993
3178.00,-0.0993
3176.00,-0.0993
3174.00,-0.0993
3172.00,-0.0993
3170.00,-0.0993
3168.00,-0.0993
3166.00,-0.0993
3164.00,-0.0993
3162.00,-0.0993
3160.00,-0.0993
3158.00,-0.0993
3156.00,-0.0993
3154.00,-0.0993
3152.00,-0.0993
3150.00,-0.0993
3148.00,-0.0993
3146.00,-0.0993
3144.00,-0.0994
3142.00,-0.0994
3140.00,-0.0994
3138.00,-0.0994
3136.00,-0.0994
3134.00,-0.0994
3132.00,-0.0994
3130.00,-0.0993
3128.00,-0.0994
3126.00,-0.0994
3124.00,-0.0994
3122.00,-0.0994
3120.00,-0.0995
3118.00,-0.0995
3116.00,-0.0996
3114.00,-0.0997
3112.00,-0.0997
3110.00,-0.0998
3108.00,-0.0998
3106.00,-0.0999
3104.00,-0.0999
3102.00,-0.0999
3100.00,-0.0999
3098.00,-0.0999
3096.00,-0.0998
3094.00,-0.0998
3092.00,-0.0999
3090.00,-0.0999
3088.00,-0.1000
3086.00,-0.1000
3084.00,-0.1001
3082.00,-0.1002
3080.00,-0.1003
3078.00,-0.1003
3076.00,-0.1004
3074.00,-0.1004
3072.00,-0.1004
3070.00,-0.1003
3068.00,-0.1003
3066.00,-0.1002
3064.00,-0.1002
3062.00,-0.1002
3060.00,-0.1002
3058.00,-0.1002
3056.00,-0.1002
3054.00,-0.1002
3052.00,-0.1002
3050.00,-0.1003
3048.00,-0.1003
3046.00,-0.1003
3044.00,-0.1003
3042.00,-0.1002
3040.00,-0.1002
3038.00,-0.1002
3036.00,-0.1002
3034.00,-0.1001
3032.00,-0.1001
3030.00,-0.1001
3028.00,-0.1001
3026.00,-0.1000
3024.00,-0.1000
3022.00,-0.1000
3020.00,-0.0999
3018.00,-0.0998
3016.00,-0.0996
3014.00,-0.0995
3012.00,-0.0993
3010.00,-0.0992
3008.00,-0.0990
3006.00,-0.0988
3004.00,-0.0986
3002.00,-0.0983
3000.00,-0.0980
2998.00,-0.0977
2996.00,-0.0975
2994.00,-0.0975
2992.00,-0.0977
2990.00,-0.0979
2988.00,-0.0980
2986.00,-0.0980
2984.00,-0.0981
2982.00,-0.0981
2980.00,-0.0983
2978.00,-0.0985
2976.00,-0.0987
2974.00,-0.0989
2972.00,-0.0990
2970.00,-0.0991
2968.00,-0.0991
2966.00,-0.0992
2964.00,-0.0992
2962.00,-0.0992
2960.00,-0.0993
2958.00,-0.0993
2956.00,-0.0993
2954.00,-0.0993
2952.00,-0.0993
2950.00,-0.0993
2948.00,-0.0993
2946.00,-0.0994
2944.00,-0.0994
2942.00,-0.0994
2940.00,-0.0995
2938.00,-0.0995
2936.00,-0.0996
2934.00,-0.0997
2932.00,-0.0997
2930.00,-0.0998
2928.00,-0.0999
2926.00,-0.0999
2924.00,-0.1000
2922.00,-0.1000
2920.00,-0.1000
2918.00,-0.0999
2916.00,-0.0999
2914.00,-0.0998
2912.00,-0.0998
2910.00,-0.0998
2908.00,-0.0997
2906.00,-0.0997
2904.00,-0.0997
2902.00,-0.0998
2900.00,-0.0998
2898.00,-0.0998
2896.00,-0.0999
2894.00,-0.0999
2892.00,-0.1000
2890.00,-0.1000
2888.00,-0.1000
2886.00,-0.1000
2884.00,-0.1000
2882.00,-0.1000
2880.00,-0.1000
2878.00,-0.1000
2876.00,-0.1000
2874.00,-0.1001
2872.00,-0.1001
2870.00,-0.1002
2868.00,-0.1002
2866.00,-0.1002
2864.00,-0.1002
2862.00,-0.1003
2860.00,-0.1003
2858.00,-0.1003
2856.00,-0.1003
2854.00,-0.1003
2852.00,-0.1003
2850.00,-0.1003
2848.00,-0.1003
2846.00,-0.1002
2844.00,-0.1002
2842.00,-0.1002
2840.00,-0.1002
2838.00,-0.1002
2836.00,-0.1002
2834.00,-0.1003
2832.00,-0.1003
2830.00,-0.1003
2828.00,-0.1003
2826.00,-0.1003
2824.00,-0.1002
2822.00,-0.1002
2820.00,-0.1002
2818.00,-0.1001
2816.00,-0.1001
2814.00,-0.1001
2812.00,-0.1001
2810.00,-0.1001
2808.00,-0.1001
2806.00,-0.1001
2804.00,-0.1001
2802.00,-0.1002
2800.00,-0.1002
2798.00,-0.1002
2796.00,-0.1002
2794.00,-0.1002
2792.00,-0.1001
2790.00,-0.1001
2788.00,-0.1001
2786.00,-0.1000
2784.00,-0.1000
2782.00,-0.0999
2780.00,-0.0999
2778.00,-0.0999
2776.00,-0.0999
2774.00,-0.0999
2772.00,-0.0999
2770.00,-0.0999
2768.00,-0.0999
2766.00,-0.0999
2764.00,-0.0999
2762.00,-0.0999
2760.00,-0.0999
2758.00,-0.0999
2756.00,-0.0999
2754.00,-0.0998
2752.00,-0.0998
2750.00,-0.0998
2748.00,-0.0998
2746.00,-0.0998
2744.00,-0.0999
2742.00,-0.0999
2740.00,-0.0999
2738.00,-0.1000
2736.00,-0.1000
2734.00,-0.1000
2732.00,-0.0999
2730.00,-0.0999
2728.00,-0.0998
2726.00,-0.0998
2724.00,-0.0997
2722.00,-0.0996
2720.00,-0.0996
2718.00,-0.0996
2716.00,-0.0995
2714.00,-0.0995
2712.00,-0.0995
2710.00,-0.0995
2708.00,-0.0995
2706.00,-0.0995
2704.00,-0.0995
2702.00,-0.0995
2700.00,-0.0995
2698.00,-0.0995
2696.00,-0.0994
2694.00,-0.0994
2692.00,-0.0994
2690.00,-0.0994
2688.00,-0.0994
2686.00,-0.0994
2684.00,-0.0994
2682.00,-0.0994
2680.00,-0.0994
2678.00,-0.0995
2676.00,-0.0995
2674.00,-0.0995
2672.00,-0.0995
2670.00,-0.0995
2668.00,-0.0995
2666.00,-0.0995
2664.00,-0.0994
2662.00,-0.0993
2660.00,-0.0993
2658.00,-0.0992
2656.00,-0.0992
2654.00,-0.0991
2652.00,-0.0991
2650.00,-0.0991
2648.00,-0.0991
2646.00,-0.0991
2644.00,-0.0991
2642.00,-0.0991
2640.00,-0.0991
2638.00,-0.0990
2636.00,-0.0990
2634.00,-0.0990
2632.00,-0.0990
2630.00,-0.0990
2628.00,-0.0989
2626.00,-0.0989
2624.00,-0.0989
2622.00,-0.0990
2620.00,-0.0990
2618.00,-0.0990
2616.00,-0.0991
2614.00,-0.0991
2612.00,-0.0991
2610.00,-0.0992
2608.00,-0.0992
2606.00,-0.0992
2604.00,-0.0992
2602.00,-0.0991
2600.00,-0.0991
2598.00,-0.0991
2596.00,-0.0991
2594.00,-0.0991
2592.00,-0.0990
2590.00,-0.0990
2588.00,-0.0991
2586.00,-0.0991
2584.00,-0.0991
2582.00,-0.0991
2580.00,-0.0991
2578.00,-0.0991
2576.00,-0.0991
2574.00,-0.0991
2572.00,-0.0990
2570.00,-0.0990
2568.00,-0.0990
2566.00,-0.0989
2564.00,-0.0989
2562.00,-0.0988
2560.00,-0.0988
2558.00,-0.0988
2556.00,-0.0988
2554.00,-0.0988
2552.00,-0.0988
2550.00,-0.0987
2548.00,-0.0987
2546.00,-0.0987
2544.00,-0.0987
2542.00,-0.0986
2540.00,-0.0986
2538.00,-0.0985
2536.00,-0.0985
2534.00,-0.0985
2532.00,-0.0985
2530.00,-0.0985
2528.00,-0.0985
2526.00,-0.0985
2524.00,-0.0985
2522.00,-0.0985
2520.00,-0.0984
2518.00,-0.0984
2516.00,-0.0984
2514.00,-0.0984
2512.00,-0.0983
2510.00,-0.0983
2508.00,-0.0982
2506.00,-0.0981
2504.00,-0.0981
2502.00,-0.0980
2500.00,-0.0979
2498.00,-0.0979
2496.00,-0.0979
2494.00,-0.0979
2492.00,-0.0979
2490.00,-0.0979
2488.00,-0.0979
2486.00,-0.0979
2484.00,-0.0978
2482.00,-0.0978
2480.00,-0.0978
2478.00,-0.0977
2476.00,-0.0977
2474.00,-0.0977
2472.00,-0.0976
2470.00,-0.0976
2468.00,-0.0976
2466.00,-0.0975
2464.00,-0.0975
2462.00,-0.0975
2460.00,-0.0975
2458.00,-0.0976
2456.00,-0.0976
2454.00,-0.0976
2452.00,-0.0976
2450.00,-0.0976
2448.00,-0.0977
2446.00,-0.0977
2444.00,-0.0977
2442.00,-0.0977
2440.00,-0.0977
2438.00,-0.0978
2436.00,-0.0978
2434.00,-0.0979
2432.00,-0.0979
2430.00,-0.0980
2428.00,-0.0981
2426.00,-0.0981
2424.00,-0.0982
2422.00,-0.0983
2420.00,-0.0983
2418.00,-0.0983
2416.00,-0.0983
2414.00,-0.0984
2412.00,-0.0983
2410.00,-0.0983
2408.00,-0.0983
2406.00,-0.0982
2404.00,-0.0982
2402.00,-0.0982
2400.00,-0.0981
2398.00,-0.0981
2396.00,-0.0981
2394.00,-0.0981
2392.00,-0.0981
2390.00,-0.0981
2388.00,-0.0981
2386.00,-0.0981
2384.00,-0.0981
2382.00,-0.0982
2380.00,-0.0982
2378.00,-0.0983
2376.00,-0.0983
2374.00,-0.0982
2372.00,-0.0982
2370.00,-0.0981
2368.00,-0.0981
2366.00,-0.0981
2364.00,-0.0982
2362.00,-0.0982
2360.00,-0.0982
2358.00,-0.0982
2356.00,-0.0982
2354.00,-0.0982
2352.00,-0.0982
2350.00,-0.0982
2348.00,-0.0982
2346.00,-0.0983
2344.00,-0.0983
2342.00,-0.0982
2340.00,-0.0981
2338.00,-0.0980
2336.00,-0.0980
2334.00,-0.0980
2332.00,-0.0980
2330.00,-0.0980
2328.00,-0.0980
2326.00,-0.0978
2324.00,-0.0977
2322.00,-0.0977
2320.00,-0.0975
2318.00,-0.0974
2316.00,-0.0974
2314.00,-0.0974
2312.00,-0.0973
2310.00,-0.0973
2308.00,-0.0973
2306.00,-0.0973
2304.00,-0.0973
2302.00,-0.0973
2300.00,-0.0973
2298.00,-0.0974
2296.00,-0.0974
2294.00,-0.0974
2292.00,-0.0974
2290.00,-0.0974
2288.00,-0.0974
2286.00,-0.0974
2284.00,-0.0974
2282.00,-0.0973
2280.00,-0.0973
2278.00,-0.0973
2276.00,-0.0973
2274.00,-0.0974
2272.00,-0.0974
2270.00,-0.0974
2268.00,-0.0974
2266.00,-0.0974
2264.00,-0.0974
2262.00,-0.0974
2260.00,-0.0974
2258.00,-0.0974
2256.00,-0.0974
2254.00,-0.0974
2252.00,-0.0973
2250.00,-0.0973
2248.00,-0.0973
2246.00,-0.0973
2244.00,-0.0973
2242.00,-0.0973
2240.00,-0.0972
2238.00,-0.0972
2236.00,-0.0972
2234.00,-0.0972
2232.00,-0.0971
2230.00,-0.0971
2228.00,-0.0970
2226.00,-0.0970
2224.00,-0.0969
2222.00,-0.0969
2220.00,-0.0969
2218.00,-0.0968
2216.00,-0.0968
2214.00,-0.0968
2212.00,-0.0968
2210.00,-0.0968
2208.00,-0.0968
2206.00,-0.0968
2204.00,-0.0968
2202.00,-0.0968
2200.00,-0.0967
2198.00,-0.0967
2196.00,-0.0966
2194.00,-0.0965
2192.00,-0.0965
2190.00,-0.0964
2188.00,-0.0963
2186.00,-0.0963
2184.00,-0.0963
2182.00,-0.0963
2180.00,-0.0963
2178.00,-0.0963
2176.00,-0.0963
2174.00,-0.0963
2172.00,-0.0964
2170.00,-0.0964
2168.00,-0.0964
2166.00,-0.0965
2164.00,-0.0965
2162.00,-0.0965
2160.00,-0.0965
2158.00,-0.0965
2156.00,-0.0965
2154.00,-0.0966
2152.00,-0.0966
2150.00,-0.0965
2148.00,-0.0965
2146.00,-0.0965
2144.00,-0.0965
2142.00,-0.0965
2140.00,-0.0965
2138.00,-0.0964
2136.00,-0.0964
2134.00,-0.0963
2132.00,-0.0963
2130.00,-0.0963
2128.00,-0.0962
2126.00,-0.0962
2124.00,-0.0962
2122.00,-0.0962
2120.00,-0.0962
2118.00,-0.0962
2116.00,-0.0962
2114.00,-0.0962
2112.00,-0.0962
2110.00,-0.0962
2108.00,-0.0962
2106.00,-0.0962
2104.00,-0.0962
2102.00,-0.0961
2100.00,-0.0961
2098.00,-0.0961
2096.00,-0.0961
2094.00,-0.0961
2092.00,-0.0961
2090.00,-0.0961
2088.00,-0.0961
2086.00,-0.0961
2084.00,-0.0962
2082.00,-0.0962
2080.00,-0.0962
2078.00,-0.0963
2076.00,-0.0963
2074.00,-0.0963
2072.00,-0.0963
2070.00,-0.0963
2068.00,-0.0963
2066.00,-0.0962
2064.00,-0.0962
2062.00,-0.0962
2060.00,-0.0962
2058.00,-0.0961
2056.00,-0.0961
2054.00,-0.0961
2052.00,-0.0961
2050.00,-0.0961
2048.00,-0.0962
2046.00,-0.0962
2044.00,-0.0962
2042.00,-0.0962
2040.00,-0.0963
2038.00,-0.0963
2036.00,-0.0963
2034.00,-0.0963
2032.00,-0.0963
2030.00,-0.0963
2028.00,-0.0963
2026.00,-0.0962
2024.00,-0.0962
2022.00,-0.0962
2020.00,-0.0961
2018.00,-0.0961
2016.00,-0.0961
2014.00,-0.0961
2012.00,-0.0961
2010.00,-0.0961
2008.00,-0.0961
2006.00,-0.0961
2004.00,-0.0962
2002.00,-0.0962
2000.00,-0.0962
1998.00,-0.0963
1996.00,-0.0964
1994.00,-0.0965
1992.00,-0.0966
1990.00,-0.0967
1988.00,-0.0968
1986.00,-0.0969
1984.00,-0.0970
1982.00,-0.0971
1980.00,-0.0971
1978.00,-0.0972
1976.00,-0.0972
1974.00,-0.0972
1972.00,-0.0971
1970.00,-0.0970
1968.00,-0.0969
1966.00,-0.0969
1964.00,-0.0969
1962.00,-0.0969
1960.00,-0.0970
1958.00,-0.0971
1956.00,-0.0973
1954.00,-0.0974
1952.00,-0.0976
1950.00,-0.0977
1948.00,-0.0978
1946.00,-0.0978
1944.00,-0.0977
1942.00,-0.0977
1940.00,-0.0976
1938.00,-0.0974
1936.00,-0.0972
1934.00,-0.0971
1932.00,-0.0969
1930.00,-0.0968
1928.00,-0.0967
1926.00,-0.0967
1924.00,-0.0967
1922.00,-0.0968
1920.00,-0.0967
1918.00,-0.0967
1916.00,-0.0967
1914.00,-0.0967
1912.00,-0.0966
1910.00,-0.0966
1908.00,-0.0966
1906.00,-0.0965
1904.00,-0.0965
1902.00,-0.0965
1900.00,-0.0964
1898.00,-0.0965
1896.00,-0.0965
1894.00,-0.0966
1892.00,-0.0966
1890.00,-0.0966
1888.00,-0.0967
1886.00,-0.0967
1884.00,-0.0968
1882.00,-0.0968
1880.00,-0.0969
1878.00,-0.0970
1876.00,-0.0970
1874.00,-0.0971
1872.00,-0.0971
1870.00,-0.0971
1868.00,-0.0971
1866.00,-0.0971
1864.00,-0.0971
1862.00,-0.0971
1860.00,-0.0971
1858.00,-0.0972
1856.00,-0.0973
1854.00,-0.0974
1852.00,-0.0975
1850.00,-0.0976
1848.00,-0.0977
1846.00,-0.0977
1844.00,-0.0978
1842.00,-0.0979
1840.00,-0.0979
1838.00,-0.0979
1836.00,-0.0979
1834.00,-0.0979
1832.00,-0.0978
1830.00,-0.0978
1828.00,-0.0978
1826.00,-0.0979
1824.00,-0.0979
1822.00,-0.0980
1820.00,-0.0980
1818.00,-0.0981
1816.00,-0.0982
1814.00,-0.0982
1812.00,-0.0983
1810.00,-0.0983
1808.00,-0.0984
1806.00,-0.0985
1804.00,-0.0985
1802.00,-0.0985
1800.00,-0.0986
1798.00,-0.0986
1796.00,-0.0985
1794.00,-0.0984
1792.00,-0.0982
1790.00,-0.0978
1788.00,-0.0973
1786.00,-0.0968
1784.00,-0.0960
1782.00,-0.0951
1780.00,-0.0940
1778.00,-0.0927
1776.00,-0.0911
1774.00,-0.0894
1772.00,-0.0876
1770.00,-0.0870
1768.00,-0.0879
1766.00,-0.0891
1764.00,-0.0893
1762.00,-0.0886
1760.00,-0.0879
1758.00,-0.0879
1756.00,-0.0888
1754.00,-0.0901
1752.00,-0.0915
1750.00,-0.0931
1748.00,-0.0944
1746.00,-0.0954
1744.00,-0.0962
1742.00,-0.0969
1740.00,-0.0974
1738.00,-0.0979
1736.00,-0.0982
1734.00,-0.0985
1732.00,-0.0987
1730.00,-0.0988
1728.00,-0.0990
1726.00,-0.0991
1724.00,-0.0991
1722.00,-0.0992
1720.00,-0.0992
1718.00,-0.0992
1716.00,-0.0992
1714.00,-0.0992
1712.00,-0.0992
1710.00,-0.0993
1708.00,-0.0993
1706.00,-0.0993
1704.00,-0.0994
1702.00,-0.0994
1700.00,-0.0993
1698.00,-0.0993
1696.00,-0.0993
1694.00,-0.0993
1692.00,-0.0993
1690.00,-0.0993
1688.00,-0.0993
1686.00,-0.0993
1684.00,-0.0993
1682.00,-0.0993
1680.00,-0.0993
1678.00,-0.0993
1676.00,-0.0993
1674.00,-0.0992
1672.00,-0.0992
1670.00,-0.0992
1668.00,-0.0992
1666.00,-0.0992
1664.00,-0.0991
1662.00,-0.0991
1660.00,-0.0991
1658.00,-0.0990
1656.00,-0.0990
1654.00,-0.0990
1652.00,-0.0990
1650.00,-0.0989
1648.00,-0.0989
1646.00,-0.0990
1644.00,-0.0991
1642.00,-0.0991
1640.00,-0.0992
1638.00,-0.0993
1636.00,-0.0993
1634.00,-0.0992
1632.00,-0.0992
1630.00,-0.0991
1628.00,-0.0991
1626.00,-0.0991
1624.00,-0.0991
1622.00,-0.0991
1620.00,-0.0991
1618.00,-0.0991
1616.00,-0.0991
1614.00,-0.0991
1612.00,-0.0991
1610.00,-0.0992
1608.00,-0.0993
1606.00,-0.0994
1604.00,-0.0994
1602.00,-0.0994
1600.00,-0.0994
1598.00,-0.0994
1596.00,-0.0994
1594.00,-0.0993
1592.00,-0.0993
1590.00,-0.0993
1588.00,-0.0993
1586.00,-0.0993
1584.00,-0.0994
1582.00,-0.0994
1580.00,-0.0994
1578.00,-0.0994
1576.00,-0.0993
1574.00,-0.0993
1572.00,-0.0993
1570.00,-0.0992
1568.00,-0.0992
1566.00,-0.0991
1564.00,-0.0990
1562.00,-0.0990
1560.00,-0.0989
1558.00,-0.0988
1556.00,-0.0989
1554.00,-0.0989
1552.00,-0.0989
1550.00,-0.0990
1548.00,-0.0991
1546.00,-0.0992
1544.00,-0.0993
1542.00,-0.0993
1540.00,-0.0993
1538.00,-0.0994
1536.00,-0.0993
1534.00,-0.0992
1532.00,-0.0991
1530.00,-0.0991
1528.00,-0.0990
1526.00,-0.0990
1524.00,-0.0989
1522.00,-0.0989
1520.00,-0.0988
1518.00,-0.0988
1516.00,-0.0989
1514.00,-0.0989
1512.00,-0.0989
1510.00,-0.0989
1508.00,-0.0990
1506.00,-0.0990
1504.00,-0.0989
1502.00,-0.0989
1500.00,-0.0989
1498.00,-0.0989
1496.00,-0.0988
1494.00,-0.0988
1492.00,-0.0988
1490.00,-0.0988
1488.00,-0.0989
1486.00,-0.0989
1484.00,-0.0989
1482.00,-0.0988
1480.00,-0.0988
1478.00,-0.0987
1476.00,-0.0987
1474.00,-0.0987
1472.00,-0.0987
1470.00,-0.0987
1468.00,-0.0987
1466.00,-0.0987
1464.00,-0.0987
1462.00,-0.0987
1460.00,-0.0987
1458.00,-0.0987
1456.00,-0.0986
1454.00,-0.0986
1452.00,-0.0987
1450.00,-0.0987
1448.00,-0.0987
1446.00,-0.0988
1444.00,-0.0988
1442.00,-0.0988
1440.00,-0.0987
1438.00,-0.0987
1436.00,-0.0987
1434.00,-0.0988
1432.00,-0.0988
1430.00,-0.0988
1428.00,-0.0988
1426.00,-0.0989
1424.00,-0.0989
1422.00,-0.0989
1420.00,-0.0989
1418.00,-0.0989
1416.00,-0.0989
1414.00,-0.0989
1412.00,-0.0988
1410.00,-0.0988
1408.00,-0.0987
1406.00,-0.0986
1404.00,-0.0985
1402.00,-0.0985
1400.00,-0.0984
1398.00,-0.0983
1396.00,-0.0982
1394.00,-0.0980
1392.00,-0.0977
1390.00,-0.0972
1388.00,-0.0967
1386.00,-0.0963
1384.00,-0.0960
1382.00,-0.0959
1380.00,-0.0960
1378.00,-0.0960
1376.00,-0.0959
1374.00,-0.0959
1372.00,-0.0960
1370.00,-0.0962
1368.00,-0.0966
1366.00,-0.0970
1364.00,-0.0974
1362.00,-0.0979
1360.00,-0.0982
1358.00,-0.0984
1356.00,-0.0985
1354.00,-0.0987
1352.00,-0.0989
1350.00,-0.0990
1348.00,-0.0991
1346.00,-0.0992
1344.00,-0.0992
1342.00,-0.0992
1340.00,-0.0993
1338.00,-0.0993
1336.00,-0.0993
1334.00,-0.0993
1332.00,-0.0993
1330.00,-0.0993
1328.00,-0.0992
1326.00,-0.0992
1324.00,-0.0991
1322.00,-0.0990
1320.00,-0.0989
1318.00,-0.0988
1316.00,-0.0987
1314.00,-0.0987
1312.00,-0.0986
1310.00,-0.0986
1308.00,-0.0986
1306.00,-0.0986
1304.00,-0.0986
1302.00,-0.0986
1300.00,-0.0986
1298.00,-0.0987
1296.00,-0.0987
1294.00,-0.0988
1292.00,-0.0988
1290.00,-0.0988
1288.00,-0.0987
1286.00,-0.0986
1284.00,-0.0985
1282.00,-0.0983
1280.00,-0.0981
1278.00,-0.0977
1276.00,-0.0974
1274.00,-0.0971
1272.00,-0.0969
1270.00,-0.0967
1268.00,-0.0963
1266.00,-0.0958
1264.00,-0.0949
1262.00,-0.0936
1260.00,-0.0920
1258.00,-0.0904
1256.00,-0.0887
1254.00,-0.0868
1252.00,-0.0846
1250.00,-0.0822
1248.00,-0.0806
1246.00,-0.0802
1244.00,-0.0805
1242.00,-0.0804
1240.00,-0.0808
1238.00,-0.0820
1236.00,-0.0832
1234.00,-0.0845
1232.00,-0.0861
1230.00,-0.0880
1228.00,-0.0900
1226.00,-0.0919
1224.00,-0.0934
1222.00,-0.0947
1220.00,-0.0956
1218.00,-0.0962
1216.00,-0.0966
1214.00,-0.0970
1212.00,-0.0973
1210.00,-0.0976
1208.00,-0.0978
1206.00,-0.0980
1204.00,-0.0982
1202.00,-0.0983
1200.00,-0.0985
1198.00,-0.0985
1196.00,-0.0986
1194.00,-0.0987
1192.00,-0.0988
1190.00,-0.0988
1188.00,-0.0988
1186.00,-0.0988
1184.00,-0.0989
1182.00,-0.0989
1180.00,-0.0988
1178.00,-0.0988
1176.00,-0.0988
1174.00,-0.0988
1172.00,-0.0988
1170.00,-0.0988
1168.00,-0.0988
1166.00,-0.0988
1164.00,-0.0988
1162.00,-0.0987
1160.00,-0.0987
1158.00,-0.0987
1156.00,-0.0987
1154.00,-0.0987
1152.00,-0.0987
1150.00,-0.0987
1148.00,-0.0987
1146.00,-0.0987
1144.00,-0.0987
1142.00,-0.0987
1140.00,-0.0987
1138.00,-0.0987
1136.00,-0.0986
1134.00,-0.0986
1132.00,-0.0986
1130.00,-0.0986
1128.00,-0.0985
1126.00,-0.0984
1124.00,-0.0984
1122.00,-0.0984
1120.00,-0.0983
1118.00,-0.0982
1116.00,-0.0980
1114.00,-0.0979
1112.00,-0.0978
1110.00,-0.0977
1108.00,-0.0977
1106.00,-0.0976
1104.00,-0.0975
1102.00,-0.0975
1100.00,-0.0975
1098.00,-0.0975
1096.00,-0.0974
1094.00,-0.0975
1092.00,-0.0975
1090.00,-0.0976
1088.00,-0.0976
1086.00,-0.0976
1084.00,-0.0975
1082.00,-0.0974
1080.00,-0.0973
1078.00,-0.0971
1076.00,-0.0969
1074.00,-0.0966
1072.00,-0.0962
1070.00,-0.0956
1068.00,-0.0949
1066.00,-0.0943
1064.00,-0.0937
1062.00,-0.0934
1060.00,-0.0932
1058.00,-0.0931
1056.00,-0.0931
1054.00,-0.0932
1052.00,-0.0933
1050.00,-0.0936
1048.00,-0.0940
1046.00,-0.0946
1044.00,-0.0952
1042.00,-0.0957
1040.00,-0.0963
1038.00,-0.0968
1036.00,-0.0972
1034.00,-0.0976
1032.00,-0.0978
1030.00,-0.0981
1028.00,-0.0983
1026.00,-0.0984
1024.00,-0.0985
1022.00,-0.0986
1020.00,-0.0987
1018.00,-0.0988
1016.00,-0.0988
1014.00,-0.0988
1012.00,-0.0989
1010.00,-0.0989
1008.00,-0.0989
1006.00,-0.0990
1004.00,-0.0990
1002.00,-0.0991
1000.00,-0.0991
998.00,-0.0991
996.00,-0.0992
994.00,-0.0992
992.00,-0.0993
990.00,-0.0994
988.00,-0.0994
986.00,-0.0994
984.00,-0.0995
982.00,-0.0995
980.00,-0.0996
978.00,-0.0996
976.00,-0.0996
974.00,-0.0997
972.00,-0.0997
970.00,-0.0997
968.00,-0.0998
966.00,-0.0998
964.00,-0.0998
962.00,-0.0999
960.00,-0.0999
958.00,-0.0999
956.00,-0.0999
954.00,-0.0999
952.00,-0.0998
950.00,-0.0998
948.00,-0.0998
946.00,-0.0997
944.00,-0.0997
942.00,-0.0997
940.00,-0.0998
938.00,-0.0997
936.00,-0.0997
934.00,-0.0997
932.00,-0.0997
930.00,-0.0997
928.00,-0.0997
926.00,-0.0998
924.00,-0.0998
922.00,-0.0999
920.00,-0.0999
918.00,-0.0998
916.00,-0.0999
914.00,-0.0999
912.00,-0.0999
910.00,-0.1000
908.00,-0.1000
906.00,-0.1001
904.00,-0.1002
902.00,-0.1002
900.00,-0.1002
898.00,-0.1003
896.00,-0.1003
894.00,-0.1003
892.00,-0.1003
890.00,-0.1003
888.00,-0.1003
886.00,-0.1003
884.00,-0.1003
882.00,-0.1003
880.00,-0.1003
878.00,-0.1003
876.00,-0.1003
874.00,-0.1003
872.00,-0.1003
870.00,-0.1003
868.00,-0.1003
866.00,-0.1002
864.00,-0.1002
862.00,-0.1002
860.00,-0.1001
858.00,-0.1001
856.00,-0.1001
854.00,-0.1001
852.00,-0.1001
850.00,-0.1001
848.00,-0.1001
846.00,-0.1001
844.00,-0.1001
842.00,-0.1001
840.00,-0.1002
838.00,-0.1002
836.00,-0.1002
834.00,-0.1002
832.00,-0.1002
830.00,-0.1002
828.00,-0.1002
826.00,-0.1002
824.00,-0.1002
822.00,-0.1002
820.00,-0.1002
818.00,-0.1002
816.00,-0.1002
814.00,-0.1002
812.00,-0.1002
810.00,-0.1002
808.00,-0.1002
806.00,-0.1003
804.00,-0.1002
802.00,-0.1002
800.00,-0.1002
798.00,-0.1002
796.00,-0.1002
794.00,-0.1002
792.00,-0.1002
790.00,-0.1002
788.00,-0.1002
786.00,-0.1002
784.00,-0.1002
782.00,-0.1003
780.00,-0.1003
778.00,-0.1003
776.00,-0.1003
774.00,-0.1003
772.00,-0.1003
770.00,-0.1003
768.00,-0.1003
766.00,-0.1003
764.00,-0.1003
762.00,-0.1003
760.00,-0.1003
758.00,-0.1003
756.00,-0.1003
754.00,-0.1003
752.00,-0.1003
750.00,-0.1003
748.00,-0.1003
746.00,-0.1003
744.00,-0.1003
742.00,-0.1003
740.00,-0.1003
738.00,-0.1003
736.00,-0.1002
734.00,-0.1002
732.00,-0.1002
730.00,-0.1002
728.00,-0.1002
726.00,-0.1002
724.00,-0.1002
722.00,-0.1003
720.00,-0.1003
718.00,-0.1002
716.00,-0.1002
714.00,-0.1002
712.00,-0.1002
710.00,-0.1002
708.00,-0.1002
706.00,-0.1002
704.00,-0.1002
702.00,-0.1002
700.00,-0.1002
698.00,-0.1002
696.00,-0.1002
694.00,-0.1002
692.00,-0.1002
690.00,-0.1002
688.00,-0.1002
686.00,-0.1002
684.00,-0.1002
682.00,-0.1002
680.00,-0.1002
678.00,-0.1002
676.00,-0.1002
674.00,-0.1001
672.00,-0.1002
670.00,-0.1004
668.00,-0.1002
666.00,-0.0997
664.00,-0.0999
662.00,-0.1000
660.00,-0.1000
658.00,-0.0999
656.00,-0.0999
654.00,-0.0999
652.00,-0.0999
650.00,-0.0999
648.00,-0.0998
646.00,-0.0997
644.00,-0.0995
642.00,-0.0995
640.00,-0.0994
638.00,-0.0992
636.00,-0.0992
634.00,-0.0992
632.00,-0.0992
630.00,-0.0991
628.00,-0.0991
626.00,-0.0991
624.00,-0.0991
622.00,-0.0992
620.00,-0.0992
618.00,-0.0992
616.00,-0.0992
614.00,-0.0992
612.00,-0.0992
610.00,-0.0991
608.00,-0.0990
606.00,-0.0990
604.00,-0.0991
602.00,-0.0992
600.00,-0.0993
598.00,-0.0993
596.00,-0.0993
594.00,-0.0994
592.00,-0.0994
590.00,-0.0994
588.00,-0.0994
586.00,-0.0994
584.00,-0.0994
582.00,-0.0994
580.00,-0.0993
578.00,-0.0992
576.00,-0.0992
574.00,-0.0992
572.00,-0.0992
570.00,-0.0992
568.00,-0.0992
566.00,-0.0991
564.00,-0.0991
562.00,-0.0991
560.00,-0.0991
558.00,-0.0991
556.00,-0.0992
554.00,-0.0992
552.00,-0.0991
550.00,-0.0991
548.00,-0.0992
546.00,-0.0992
544.00,-0.0992
542.00,-0.0992
540.00,-0.0991
538.00,-0.0992
536.00,-0.0994
534.00,-0.0993
532.00,-0.0994
530.00,-0.0996
528.00,-0.0996
526.00,-0.0997
524.00,-0.0997
522.00,-0.0998
520.00,-0.0999
518.00,-0.0999
516.00,-0.0999
514.00,-0.1000
512.00,-0.1001
510.00,-0.1002
508.00,-0.1001
506.00,-0.1000
504.00,-0.1001
502.00,-0.1003
500.00,-0.1004
