Created as New Dataset,Sample 054 By Analyst Date Wednesday, April 02 2025
cm-1,A
4000.00,-0.1029
3998.00,-0.1029
3996.00,-0.1029
3994.00,-0.1029
3992.00,-0.1029
3990.00,-0.1029
3988.00,-0.1028
3986.00,-0.1028
3984.00,-0.1028
3982.00,-0.1027
3980.00,-0.1026
3978.00,-0.1026
3976.00,-0.1025
3974.00,-0.1025
3972.00,-0.1025
3970.00,-0.1025
3968.00,-0.1025
3966.00,-0.1026
3964.00,-0.1026
3962.00,-0.1026
3960.00,-0.1026
3958.00,-0.1026
3956.00,-0.1026
3954.00,-0.1026
3952.00,-0.1025
3950.00,-0.1025
3948.00,-0.1025
3946.00,-0.1025
3944.00,-0.1024
3942.00,-0.1024
3940.00,-0.1024
3938.00,-0.1024
3936.00,-0.1025
3934.00,-0.1025
3932.00,-0.1025
3930.00,-0.1025
3928.00,-0.1025
3926.00,-0.1025
3924.00,-0.1024
3922.00,-0.1024
3920.00,-0.1024
3918.00,-0.1023
3916.00,-0.1022
3914.00,-0.1021
3912.00,-0.1020
3910.00,-0.1021
3908.00,-0.1022
3906.00,-0.1023
3904.00,-0.1024
3902.00,-0.1025
3900.00,-0.1024
3898.00,-0.1024
3896.00,-0.1024
3894.00,-0.1024
3892.00,-0.1023
3890.00,-0.1024
3888.00,-0.1023
3886.00,-0.1022
3884.00,-0.1023
3882.00,-0.1022
3880.00,-0.1021
3878.00,-0.1023
3876.00,-0.1022
3874.00,-0.1024
3872.00,-0.1025
3870.00,-0.1023
3868.00,-0.1026
3866.00,-0.1025
3864.00,-0.1024
3862.00,-0.1024
3860.00,-0.1024
3858.00,-0.1024
3856.00,-0.1024
3854.00,-0.1019
3852.00,-0.1021
3850.00,-0.1022
3848.00,-0.1021
3846.00,-0.1021
3844.00,-0.1022
3842.00,-0.1023
3840.00,-0.1023
3838.00,-0.1022
3836.00,-0.1023
3834.00,-0.1023
3832.00,-0.1021
3830.00,-0.1021
3828.00,-0.1020
3826.00,-0.1020
3824.00,-0.1021
3822.00,-0.1019
3820.00,-0.1020
3818.00,-0.1019
3816.00,-0.1015
3814.00,-0.1017
3812.00,-0.1016
3810.00,-0.1017
3808.00,-0.1017
3806.00,-0.1019
3804.00,-0.1021
3802.00,-0.1018
3800.00,-0.1020
3798.00,-0.1018
3796.00,-0.1016
3794.00,-0.1016
3792.00,-0.1014
3790.00,-0.1013
3788.00,-0.1013
3786.00,-0.1013
3784.00,-0.1014
3782.00,-0.1015
3780.00,-0.1015
3778.00,-0.1015
3776.00,-0.1016
3774.00,-0.1016
3772.00,-0.1017
3770.00,-0.1017
3768.00,-0.1018
3766.00,-0.1016
3764.00,-0.1017
3762.00,-0.1017
3760.00,-0.1016
3758.00,-0.1016
3756.00,-0.1017
3754.00,-0.1018
3752.00,-0.1018
3750.00,-0.1017
3748.00,-0.1020
3746.00,-0.1016
3744.00,-0.1014
3742.00,-0.1019
3740.00,-0.1018
3738.00,-0.1019
3736.00,-0.1018
3734.00,-0.1016
3732.00,-0.1013
3730.00,-0.1013
3728.00,-0.1011
3726.00,-0.1010
3724.00,-0.1010
3722.00,-0.1009
3720.00,-0.1008
3718.00,-0.1008
3716.00,-0.1010
3714.00,-0.1013
3712.00,-0.1014
3710.00,-0.1014
3708.00,-0.1014
3706.00,-0.1014
3704.00,-0.1014
3702.00,-0.1013
3700.00,-0.1014
3698.00,-0.1014
3696.00,-0.1015
3694.00,-0.1017
3692.00,-0.1020
3690.00,-0.1019
3688.00,-0.1020
3686.00,-0.1022
3684.00,-0.1022
3682.00,-0.1023
3680.00,-0.1025
3678.00,-0.1028
3676.00,-0.1026
3674.00,-0.1028
3672.00,-0.1027
3670.00,-0.1024
3668.00,-0.1024
3666.00,-0.1022
3664.00,-0.1020
3662.00,-0.1019
3660.00,-0.1020
3658.00,-0.1020
3656.00,-0.1020
3654.00,-0.1023
3652.00,-0.1024
3650.00,-0.1025
3648.00,-0.1023
3646.00,-0.1023
3644.00,-0.1020
3642.00,-0.1018
3640.00,-0.1017
3638.00,-0.1017
3636.00,-0.1017
3634.00,-0.1017
3632.00,-0.1019
3630.00,-0.1018
3628.00,-0.1017
3626.00,-0.1019
3624.00,-0.1019
3622.00,-0.1020
3620.00,-0.1020
3618.00,-0.1021
3616.00,-0.1022
3614.00,-0.1021
3612.00,-0.1022
3610.00,-0.1021
3608.00,-0.1020
3606.00,-0.1019
3604.00,-0.1019
3602.00,-0.1018
3600.00,-0.1018
3598.00,-0.1018
3596.00,-0.1018
3594.00,-0.1019
3592.00,-0.1020
3590.00,-0.1021
3588.00,-0.1020
3586.00,-0.1021
3584.00,-0.1021
3582.00,-0.1020
3580.00,-0.1020
3578.00,-0.1020
3576.00,-0.1020
3574.00,-0.1019
3572.00,-0.1020
3570.00,-0.1021
3568.00,-0.1021
3566.00,-0.1022
3564.00,-0.1022
3562.00,-0.1021
3560.00,-0.1021
3558.00,-0.1022
3556.00,-0.1023
3554.00,-0.1023
3552.00,-0.1023
3550.00,-0.1024
3548.00,-0.1023
3546.00,-0.1023
3544.00,-0.1022
3542.00,-0.1021
3540.00,-0.1020
3538.00,-0.1020
3536.00,-0.1019
3534.00,-0.1020
3532.00,-0.1020
3530.00,-0.1021
3528.00,-0.1021
3526.00,-0.1022
3524.00,-0.1022
3522.00,-0.1022
3520.00,-0.1021
3518.00,-0.1020
3516.00,-0.1020
3514.00,-0.1019
3512.00,-0.1019
3510.00,-0.1019
3508.00,-0.1018
3506.00,-0.1018
3504.00,-0.1018
3502.00,-0.1018
3500.00,-0.1019
3498.00,-0.1019
3496.00,-0.1020
3494.00,-0.1021
3492.00,-0.1021
3490.00,-0.1022
3488.00,-0.1022
3486.00,-0.1022
3484.00,-0.1022
3482.00,-0.1022
3480.00,-0.1021
3478.00,-0.1021
3476.00,-0.1021
3474.00,-0.1021
3472.00,-0.1021
3470.00,-0.1022
3468.00,-0.1022
3466.00,-0.1023
3464.00,-0.1024
3462.00,-0.1025
3460.00,-0.1026
3458.00,-0.1026
3456.00,-0.1026
3454.00,-0.1026
3452.00,-0.1026
3450.00,-0.1026
3448.00,-0.1026
3446.00,-0.1026
3444.00,-0.1026
3442.00,-0.1026
3440.00,-0.1027
3438.00,-0.1027
3436.00,-0.1027
3434.00,-0.1028
3432.00,-0.1029
3430.00,-0.1029
3428.00,-0.1030
3426.00,-0.1030
3424.00,-0.1029
3422.00,-0.1029
3420.00,-0.1028
3418.00,-0.1027
3416.00,-0.1026
3414.00,-0.1025
3412.00,-0.1024
3410.00,-0.1023
3408.00,-0.1023
3406.00,-0.1022
3404.00,-0.1022
3402.00,-0.1022
3400.00,-0.1021
3398.00,-0.1021
3396.00,-0.1021
3394.00,-0.1020
3392.00,-0.1019
3390.00,-0.1019
3388.00,-0.1018
3386.00,-0.1017
3384.00,-0.1016
3382.00,-0.1016
3380.00,-0.1015
3378.00,-0.1015
3376.00,-0.1015
3374.00,-0.1015
3372.00,-0.1015
3370.00,-0.1015
3368.00,-0.1016
3366.00,-0.1016
3364.00,-0.1016
3362.00,-0.1016
3360.00,-0.1015
3358.00,-0.1015
3356.00,-0.1014
3354.00,-0.1014
3352.00,-0.1013
3350.00,-0.1013
3348.00,-0.1013
3346.00,-0.1013
3344.00,-0.1014
3342.00,-0.1015
3340.00,-0.1015
3338.00,-0.1016
3336.00,-0.1017
3334.00,-0.1017
3332.00,-0.1017
3330.00,-0.1017
3328.00,-0.1017
3326.00,-0.1017
3324.00,-0.1017
3322.00,-0.1016
3320.00,-0.1016
3318.00,-0.1016
3316.00,-0.1017
3314.00,-0.1018
3312.00,-0.1019
3310.00,-0.1020
3308.00,-0.1022
3306.00,-0.1023
3304.00,-0.1025
3302.00,-0.1025
3300.00,-0.1025
3298.00,-0.1024
3296.00,-0.1023
3294.00,-0.1021
3292.00,-0.1019
3290.00,-0.1017
3288.00,-0.1016
3286.00,-0.1015
3284.00,-0.1014
3282.00,-0.1014
3280.00,-0.1014
3278.00,-0.1014
3276.00,-0.1014
3274.00,-0.1014
3272.00,-0.1014
3270.00,-0.1013
3268.00,-0.1013
3266.00,-0.1013
3264.00,-0.1012
3262.00,-0.1011
3260.00,-0.1011
3258.00,-0.1011
3256.00,-0.1010
3254.00,-0.1010
3252.00,-0.1011
3250.00,-0.1011
3248.00,-0.1012
3246.00,-0.1012
3244.00,-0.1013
3242.00,-0.1014
3240.00,-0.1014
3238.00,-0.1014
3236.00,-0.1014
3234.00,-0.1014
3232.00,-0.1014
3230.00,-0.1014
3228.00,-0.1013
3226.00,-0.1013
3224.00,-0.1013
3222.00,-0.1013
3220.00,-0.1014
3218.00,-0.1015
3216.00,-0.1016
3214.00,-0.1016
3212.00,-0.1017
3210.00,-0.1018
3208.00,-0.1018
3206.00,-0.1018
3204.00,-0.1018
3202.00,-0.1018
3200.00,-0.1018
3198.00,-0.1017
3196.00,-0.1017
3194.00,-0.1017
3192.00,-0.1016
3190.00,-0.1017
3188.00,-0.1017
3186.00,-0.1017
3184.00,-0.1018
3182.00,-0.1019
3180.00,-0.1019
3178.00,-0.1020
3176.00,-0.1020
3174.00,-0.1019
3172.00,-0.1019
3170.00,-0.1018
3168.00,-0.1018
3166.00,-0.1017
3164.00,-0.1017
3162.00,-0.1017
3160.00,-0.1017
3158.00,-0.1017
3156.00,-0.1017
3154.00,-0.1018
3152.00,-0.1018
3150.00,-0.1019
3148.00,-0.1019
3146.00,-0.1019
3144.00,-0.1019
3142.00,-0.1019
3140.00,-0.1019
3138.00,-0.1018
3136.00,-0.1018
3134.00,-0.1018
3132.00,-0.1018
3130.00,-0.1017
3128.00,-0.1018
3126.00,-0.1018
3124.00,-0.1019
3122.00,-0.1020
3120.00,-0.1020
3118.00,-0.1021
3116.00,-0.1022
3114.00,-0.1023
3112.00,-0.1023
3110.00,-0.1023
3108.00,-0.1023
3106.00,-0.1023
3104.00,-0.1023
3102.00,-0.1023
3100.00,-0.1023
3098.00,-0.1023
3096.00,-0.1023
3094.00,-0.1023
3092.00,-0.1024
3090.00,-0.1025
3088.00,-0.1026
3086.00,-0.1027
3084.00,-0.1028
3082.00,-0.1028
3080.00,-0.1029
3078.00,-0.1029
3076.00,-0.1029
3074.00,-0.1028
3072.00,-0.1028
3070.00,-0.1027
3068.00,-0.1027
3066.00,-0.1027
3064.00,-0.1027
3062.00,-0.1028
3060.00,-0.1028
3058.00,-0.1028
3056.00,-0.1029
3054.00,-0.1029
3052.00,-0.1029
3050.00,-0.1029
3048.00,-0.1029
3046.00,-0.1028
3044.00,-0.1027
3042.00,-0.1027
3040.00,-0.1026
3038.00,-0.1026
3036.00,-0.1026
3034.00,-0.1026
3032.00,-0.1026
3030.00,-0.1026
3028.00,-0.1027
3026.00,-0.1027
3024.00,-0.1027
3022.00,-0.1026
3020.00,-0.1026
3018.00,-0.1024
3016.00,-0.1023
3014.00,-0.1021
3012.00,-0.1020
3010.00,-0.1018
3008.00,-0.1016
3006.00,-0.1014
3004.00,-0.1013
3002.00,-0.1011
3000.00,-0.1008
2998.00,-0.1006
2996.00,-0.1005
2994.00,-0.1005
2992.00,-0.1007
2990.00,-0.1009
2988.00,-0.1009
2986.00,-0.1010
2984.00,-0.1010
2982.00,-0.1010
2980.00,-0.1011
2978.00,-0.1012
2976.00,-0.1013
2974.00,-0.1015
2972.00,-0.1016
2970.00,-0.1017
2968.00,-0.1018
2966.00,-0.1018
2964.00,-0.1019
2962.00,-0.1020
2960.00,-0.1020
2958.00,-0.1021
2956.00,-0.1021
2954.00,-0.1020
2952.00,-0.1020
2950.00,-0.1019
2948.00,-0.1019
2946.00,-0.1019
2944.00,-0.1019
2942.00,-0.1019
2940.00,-0.1020
2938.00,-0.1021
2936.00,-0.1022
2934.00,-0.1023
2932.00,-0.1024
2930.00,-0.1024
2928.00,-0.1025
2926.00,-0.1025
2924.00,-0.1026
2922.00,-0.1025
2920.00,-0.1025
2918.00,-0.1024
2916.00,-0.1023
2914.00,-0.1022
2912.00,-0.1022
2910.00,-0.1022
2908.00,-0.1022
2906.00,-0.1022
2904.00,-0.1023
2902.00,-0.1023
2900.00,-0.1024
2898.00,-0.1025
2896.00,-0.1025
2894.00,-0.1026
2892.00,-0.1026
2890.00,-0.1026
2888.00,-0.1025
2886.00,-0.1025
2884.00,-0.1025
2882.00,-0.1024
2880.00,-0.1024
2878.00,-0.1024
2876.00,-0.1025
2874.00,-0.1026
2872.00,-0.1026
2870.00,-0.1027
2868.00,-0.1028
2866.00,-0.1028
2864.00,-0.1028
2862.00,-0.1028
2860.00,-0.1028
2858.00,-0.1028
2856.00,-0.1028
2854.00,-0.1027
2852.00,-0.1027
2850.00,-0.1026
2848.00,-0.1026
2846.00,-0.1026
2844.00,-0.1026
2842.00,-0.1027
2840.00,-0.1027
2838.00,-0.1028
2836.00,-0.1028
2834.00,-0.1028
2832.00,-0.1029
2830.00,-0.1028
2828.00,-0.1028
2826.00,-0.1027
2824.00,-0.1027
2822.00,-0.1026
2820.00,-0.1025
2818.00,-0.1025
2816.00,-0.1025
2814.00,-0.1025
2812.00,-0.1025
2810.00,-0.1026
2808.00,-0.1026
2806.00,-0.1027
2804.00,-0.1028
2802.00,-0.1028
2800.00,-0.1028
2798.00,-0.1028
2796.00,-0.1027
2794.00,-0.1027
2792.00,-0.1026
2790.00,-0.1025
2788.00,-0.1024
2786.00,-0.1024
2784.00,-0.1024
2782.00,-0.1024
2780.00,-0.1024
2778.00,-0.1024
2776.00,-0.1024
2774.00,-0.1025
2772.00,-0.1025
2770.00,-0.1025
2768.00,-0.1025
2766.00,-0.1025
2764.00,-0.1024
2762.00,-0.1023
2760.00,-0.1023
2758.00,-0.1022
2756.00,-0.1022
2754.00,-0.1022
2752.00,-0.1022
2750.00,-0.1022
2748.00,-0.1023
2746.00,-0.1023
2744.00,-0.1024
2742.00,-0.1025
2740.00,-0.1025
2738.00,-0.1025
2736.00,-0.1025
2734.00,-0.1025
2732.00,-0.1024
2730.00,-0.1023
2728.00,-0.1022
2726.00,-0.1021
2724.00,-0.1020
2722.00,-0.1020
2720.00,-0.1020
2718.00,-0.1020
2716.00,-0.1020
2714.00,-0.1020
2712.00,-0.1021
2710.00,-0.1021
2708.00,-0.1021
2706.00,-0.1021
2704.00,-0.1021
2702.00,-0.1020
2700.00,-0.1019
2698.00,-0.1019
2696.00,-0.1018
2694.00,-0.1018
2692.00,-0.1017
2690.00,-0.1017
2688.00,-0.1018
2686.00,-0.1018
2684.00,-0.1019
2682.00,-0.1019
2680.00,-0.1020
2678.00,-0.1021
2676.00,-0.1021
2674.00,-0.1021
2672.00,-0.1021
2670.00,-0.1020
2668.00,-0.1019
2666.00,-0.1018
2664.00,-0.1017
2662.00,-0.1017
2660.00,-0.1016
2658.00,-0.1016
2656.00,-0.1015
2654.00,-0.1015
2652.00,-0.1016
2650.00,-0.1016
2648.00,-0.1016
2646.00,-0.1016
2644.00,-0.1016
2642.00,-0.1016
2640.00,-0.1015
2638.00,-0.1015
2636.00,-0.1014
2634.00,-0.1014
2632.00,-0.1013
2630.00,-0.1013
2628.00,-0.1013
2626.00,-0.1013
2624.00,-0.1014
2622.00,-0.1014
2620.00,-0.1015
2618.00,-0.1016
2616.00,-0.1017
2614.00,-0.1017
2612.00,-0.1017
2610.00,-0.1017
2608.00,-0.1017
2606.00,-0.1016
2604.00,-0.1016
2602.00,-0.1015
2600.00,-0.1014
2598.00,-0.1014
2596.00,-0.1014
2594.00,-0.1014
2592.00,-0.1015
2590.00,-0.1015
2588.00,-0.1016
2586.00,-0.1016
2584.00,-0.1017
2582.00,-0.1017
2580.00,-0.1017
2578.00,-0.1016
2576.00,-0.1016
2574.00,-0.1015
2572.00,-0.1014
2570.00,-0.1013
2568.00,-0.1013
2566.00,-0.1012
2564.00,-0.1012
2562.00,-0.1012
2560.00,-0.1012
2558.00,-0.1013
2556.00,-0.1013
2554.00,-0.1013
2552.00,-0.1013
2550.00,-0.1013
2548.00,-0.1013
2546.00,-0.1012
2544.00,-0.1011
2542.00,-0.1010
2540.00,-0.1009
2538.00,-0.1009
2536.00,-0.1009
2534.00,-0.1008
2532.00,-0.1009
2530.00,-0.1009
2528.00,-0.1010
2526.00,-0.1010
2524.00,-0.1010
2522.00,-0.1010
2520.00,-0.1010
2518.00,-0.1010
2516.00,-0.1009
2514.00,-0.1009
2512.00,-0.1007
2510.00,-0.1006
2508.00,-0.1005
2506.00,-0.1004
2504.00,-0.1004
2502.00,-0.1003
2500.00,-0.1003
2498.00,-0.1003
2496.00,-0.1003
2494.00,-0.1004
2492.00,-0.1004
2490.00,-0.1004
2488.00,-0.1004
2486.00,-0.1004
2484.00,-0.1004
2482.00,-0.1003
2480.00,-0.1002
2478.00,-0.1001
2476.00,-0.1000
2474.00,-0.1000
2472.00,-0.0999
2470.00,-0.0999
2468.00,-0.0999
2466.00,-0.1000
2464.00,-0.1000
2462.00,-0.1001
2460.00,-0.1001
2458.00,-0.1001
2456.00,-0.1001
2454.00,-0.1001
2452.00,-0.1001
2450.00,-0.1001
2448.00,-0.1001
2446.00,-0.1000
2444.00,-0.1000
2442.00,-0.1001
2440.00,-0.1001
2438.00,-0.1002
2436.00,-0.1002
2434.00,-0.1003
2432.00,-0.1004
2430.00,-0.1005
2428.00,-0.1006
2426.00,-0.1007
2424.00,-0.1007
2422.00,-0.1008
2420.00,-0.1008
2418.00,-0.1008
2416.00,-0.1007
2414.00,-0.1007
2412.00,-0.1006
2410.00,-0.1006
2408.00,-0.1006
2406.00,-0.1006
2404.00,-0.1006
2402.00,-0.1006
2400.00,-0.1007
2398.00,-0.1007
2396.00,-0.1007
2394.00,-0.1007
2392.00,-0.1006
2390.00,-0.1006
2388.00,-0.1006
2386.00,-0.1005
2384.00,-0.1006
2382.00,-0.1001
2380.00,-0.1000
2378.00,-0.0999
2376.00,-0.1002
2374.00,-0.1004
2372.00,-0.1004
2370.00,-0.0993
2368.00,-0.0992
2366.00,-0.0990
2364.00,-0.0989
2362.00,-0.0988
2360.00,-0.0986
2358.00,-0.0985
2356.00,-0.0984
2354.00,-0.0984
2352.00,-0.0984
2350.00,-0.0986
2348.00,-0.0992
2346.00,-0.0995
2344.00,-0.0993
2342.00,-0.0996
2340.00,-0.0998
2338.00,-0.0998
2336.00,-0.0998
2334.00,-0.1001
2332.00,-0.0990
2330.00,-0.0991
2328.00,-0.0990
2326.00,-0.0990
2324.00,-0.0993
2322.00,-0.0995
2320.00,-0.0993
2318.00,-0.0992
2316.00,-0.0993
2314.00,-0.0995
2312.00,-0.0996
2310.00,-0.0996
2308.00,-0.0996
2306.00,-0.0997
2304.00,-0.0998
2302.00,-0.0999
2300.00,-0.0999
2298.00,-0.0999
2296.00,-0.0999
2294.00,-0.0999
2292.00,-0.0998
2290.00,-0.0998
2288.00,-0.0997
2286.00,-0.0997
2284.00,-0.0997
2282.00,-0.0997
2280.00,-0.0998
2278.00,-0.0998
2276.00,-0.0999
2274.00,-0.0999
2272.00,-0.1000
2270.00,-0.1000
2268.00,-0.1000
2266.00,-0.1000
2264.00,-0.1000
2262.00,-0.0999
2260.00,-0.0998
2258.00,-0.0998
2256.00,-0.0997
2254.00,-0.0997
2252.00,-0.0997
2250.00,-0.0997
2248.00,-0.0997
2246.00,-0.0998
2244.00,-0.0998
2242.00,-0.0998
2240.00,-0.0998
2238.00,-0.0998
2236.00,-0.0998
2234.00,-0.0997
2232.00,-0.0996
2230.00,-0.0995
2228.00,-0.0994
2226.00,-0.0993
2224.00,-0.0993
2222.00,-0.0992
2220.00,-0.0992
2218.00,-0.0992
2216.00,-0.0993
2214.00,-0.0993
2212.00,-0.0994
2210.00,-0.0994
2208.00,-0.0994
2206.00,-0.0994
2204.00,-0.0993
2202.00,-0.0993
2200.00,-0.0992
2198.00,-0.0991
2196.00,-0.0990
2194.00,-0.0989
2192.00,-0.0988
2190.00,-0.0987
2188.00,-0.0987
2186.00,-0.0987
2184.00,-0.0987
2182.00,-0.0988
2180.00,-0.0988
2178.00,-0.0989
2176.00,-0.0989
2174.00,-0.0989
2172.00,-0.0989
2170.00,-0.0989
2168.00,-0.0989
2166.00,-0.0989
2164.00,-0.0989
2162.00,-0.0989
2160.00,-0.0989
2158.00,-0.0989
2156.00,-0.0989
2154.00,-0.0990
2152.00,-0.0990
2150.00,-0.0991
2148.00,-0.0991
2146.00,-0.0991
2144.00,-0.0991
2142.00,-0.0991
2140.00,-0.0990
2138.00,-0.0989
2136.00,-0.0988
2134.00,-0.0987
2132.00,-0.0986
2130.00,-0.0986
2128.00,-0.0985
2126.00,-0.0985
2124.00,-0.0986
2122.00,-0.0986
2120.00,-0.0987
2118.00,-0.0987
2116.00,-0.0988
2114.00,-0.0988
2112.00,-0.0988
2110.00,-0.0988
2108.00,-0.0988
2106.00,-0.0987
2104.00,-0.0986
2102.00,-0.0986
2100.00,-0.0985
2098.00,-0.0985
2096.00,-0.0985
2094.00,-0.0985
2092.00,-0.0985
2090.00,-0.0986
2088.00,-0.0986
2086.00,-0.0987
2084.00,-0.0988
2082.00,-0.0988
2080.00,-0.0988
2078.00,-0.0988
2076.00,-0.0988
2074.00,-0.0988
2072.00,-0.0987
2070.00,-0.0987
2068.00,-0.0986
2066.00,-0.0986
2064.00,-0.0986
2062.00,-0.0986
2060.00,-0.0986
2058.00,-0.0986
2056.00,-0.0987
2054.00,-0.0987
2052.00,-0.0987
2050.00,-0.0987
2048.00,-0.0987
2046.00,-0.0987
2044.00,-0.0987
2042.00,-0.0987
2040.00,-0.0986
2038.00,-0.0986
2036.00,-0.0986
2034.00,-0.0986
2032.00,-0.0986
2030.00,-0.0987
2028.00,-0.0987
2026.00,-0.0987
2024.00,-0.0987
2022.00,-0.0987
2020.00,-0.0987
2018.00,-0.0987
2016.00,-0.0986
2014.00,-0.0986
2012.00,-0.0985
2010.00,-0.0985
2008.00,-0.0985
2006.00,-0.0985
2004.00,-0.0985
2002.00,-0.0985
2000.00,-0.0986
1998.00,-0.0987
1996.00,-0.0988
1994.00,-0.0990
1992.00,-0.0991
1990.00,-0.0993
1988.00,-0.0994
1986.00,-0.0995
1984.00,-0.0995
1982.00,-0.0996
1980.00,-0.0996
1978.00,-0.0996
1976.00,-0.0995
1974.00,-0.0995
1972.00,-0.0994
1970.00,-0.0993
1968.00,-0.0993
1966.00,-0.0993
1964.00,-0.0993
1962.00,-0.0994
1960.00,-0.0996
1958.00,-0.0997
1956.00,-0.0998
1954.00,-0.1000
1952.00,-0.1001
1950.00,-0.1002
1948.00,-0.1002
1946.00,-0.1001
1944.00,-0.1000
1942.00,-0.0999
1940.00,-0.0999
1938.00,-0.0997
1936.00,-0.0996
1934.00,-0.0995
1932.00,-0.0994
1930.00,-0.0993
1928.00,-0.0993
1926.00,-0.0993
1924.00,-0.0992
1922.00,-0.0993
1920.00,-0.0992
1918.00,-0.0992
1916.00,-0.0992
1914.00,-0.0991
1912.00,-0.0990
1910.00,-0.0989
1908.00,-0.0989
1906.00,-0.0989
1904.00,-0.0989
1902.00,-0.0989
1900.00,-0.0989
1898.00,-0.0990
1896.00,-0.0990
1894.00,-0.0991
1892.00,-0.0991
1890.00,-0.0991
1888.00,-0.0992
1886.00,-0.0992
1884.00,-0.0992
1882.00,-0.0992
1880.00,-0.0992
1878.00,-0.0993
1876.00,-0.0993
1874.00,-0.0994
1872.00,-0.0995
1870.00,-0.0995
1868.00,-0.0995
1866.00,-0.0996
1864.00,-0.0996
1862.00,-0.0996
1860.00,-0.0996
1858.00,-0.0997
1856.00,-0.0997
1854.00,-0.0998
1852.00,-0.0998
1850.00,-0.0999
1848.00,-0.1000
1846.00,-0.1000
1844.00,-0.1001
1842.00,-0.1003
1840.00,-0.1003
1838.00,-0.1004
1836.00,-0.1004
1834.00,-0.1004
1832.00,-0.1004
1830.00,-0.1003
1828.00,-0.1004
1826.00,-0.1004
1824.00,-0.1004
1822.00,-0.1004
1820.00,-0.1004
1818.00,-0.1005
1816.00,-0.1005
1814.00,-0.1005
1812.00,-0.1006
1810.00,-0.1007
1808.00,-0.1008
1806.00,-0.1010
1804.00,-0.1010
1802.00,-0.1011
1800.00,-0.1011
1798.00,-0.1012
1796.00,-0.1011
1794.00,-0.1010
1792.00,-0.1007
1790.00,-0.1004
1788.00,-0.1000
1786.00,-0.0995
1784.00,-0.0989
1782.00,-0.0981
1780.00,-0.0972
1778.00,-0.0961
1776.00,-0.0948
1774.00,-0.0934
1772.00,-0.0921
1770.00,-0.0915
1768.00,-0.0922
1766.00,-0.0932
1764.00,-0.0934
1762.00,-0.0927
1760.00,-0.0921
1758.00,-0.0921
1756.00,-0.0929
1754.00,-0.0939
1752.00,-0.0952
1750.00,-0.0965
1748.00,-0.0976
1746.00,-0.0985
1744.00,-0.0992
1742.00,-0.0998
1740.00,-0.1003
1738.00,-0.1007
1736.00,-0.1011
1734.00,-0.1013
1732.00,-0.1014
1730.00,-0.1014
1728.00,-0.1015
1726.00,-0.1015
1724.00,-0.1015
1722.00,-0.1016
1720.00,-0.1016
1718.00,-0.1017
1716.00,-0.1017
1714.00,-0.1018
1712.00,-0.1018
1710.00,-0.1019
1708.00,-0.1019
1706.00,-0.1019
1704.00,-0.1019
1702.00,-0.1020
1700.00,-0.1019
1698.00,-0.1019
1696.00,-0.1018
1694.00,-0.1018
1692.00,-0.1017
1690.00,-0.1017
1688.00,-0.1017
1686.00,-0.1018
1684.00,-0.1018
1682.00,-0.1018
1680.00,-0.1018
1678.00,-0.1019
1676.00,-0.1019
1674.00,-0.1019
1672.00,-0.1018
1670.00,-0.1017
1668.00,-0.1017
1666.00,-0.1016
1664.00,-0.1016
1662.00,-0.1015
1660.00,-0.1015
1658.00,-0.1014
1656.00,-0.1014
1654.00,-0.1013
1652.00,-0.1015
1650.00,-0.1015
1648.00,-0.1015
1646.00,-0.1016
1644.00,-0.1017
1642.00,-0.1018
1640.00,-0.1018
1638.00,-0.1018
1636.00,-0.1018
1634.00,-0.1017
1632.00,-0.1016
1630.00,-0.1015
1628.00,-0.1015
1626.00,-0.1015
1624.00,-0.1015
1622.00,-0.1015
1620.00,-0.1015
1618.00,-0.1015
1616.00,-0.1016
1614.00,-0.1017
1612.00,-0.1017
1610.00,-0.1017
1608.00,-0.1018
1606.00,-0.1018
1604.00,-0.1018
1602.00,-0.1018
1600.00,-0.1017
1598.00,-0.1017
1596.00,-0.1017
1594.00,-0.1017
1592.00,-0.1017
1590.00,-0.1017
1588.00,-0.1018
1586.00,-0.1018
1584.00,-0.1019
1582.00,-0.1019
1580.00,-0.1019
1578.00,-0.1019
1576.00,-0.1019
1574.00,-0.1018
1572.00,-0.1017
1570.00,-0.1016
1568.00,-0.1016
1566.00,-0.1015
1564.00,-0.1014
1562.00,-0.1013
1560.00,-0.1013
1558.00,-0.1013
1556.00,-0.1014
1554.00,-0.1015
1552.00,-0.1016
1550.00,-0.1017
1548.00,-0.1018
1546.00,-0.1018
1544.00,-0.1018
1542.00,-0.1018
1540.00,-0.1018
1538.00,-0.1018
1536.00,-0.1017
1534.00,-0.1016
1532.00,-0.1015
1530.00,-0.1015
1528.00,-0.1015
1526.00,-0.1015
1524.00,-0.1015
1522.00,-0.1015
1520.00,-0.1015
1518.00,-0.1015
1516.00,-0.1015
1514.00,-0.1015
1512.00,-0.1014
1510.00,-0.1014
1508.00,-0.1014
1506.00,-0.1014
1504.00,-0.1014
1502.00,-0.1014
1500.00,-0.1014
1498.00,-0.1014
1496.00,-0.1014
1494.00,-0.1014
1492.00,-0.1014
1490.00,-0.1014
1488.00,-0.1014
1486.00,-0.1015
1484.00,-0.1015
1482.00,-0.1014
1480.00,-0.1013
1478.00,-0.1013
1476.00,-0.1012
1474.00,-0.1012
1472.00,-0.1012
1470.00,-0.1012
1468.00,-0.1012
1466.00,-0.1012
1464.00,-0.1013
1462.00,-0.1013
1460.00,-0.1014
1458.00,-0.1013
1456.00,-0.1013
1454.00,-0.1013
1452.00,-0.1013
1450.00,-0.1013
1448.00,-0.1012
1446.00,-0.1012
1444.00,-0.1012
1442.00,-0.1012
1440.00,-0.1012
1438.00,-0.1011
1436.00,-0.1012
1434.00,-0.1013
1432.00,-0.1013
1430.00,-0.1014
1428.00,-0.1015
1426.00,-0.1015
1424.00,-0.1015
1422.00,-0.1015
1420.00,-0.1015
1418.00,-0.1014
1416.00,-0.1014
1414.00,-0.1014
1412.00,-0.1013
1410.00,-0.1012
1408.00,-0.1011
1406.00,-0.1010
1404.00,-0.1010
1402.00,-0.1010
1400.00,-0.1011
1398.00,-0.1010
1396.00,-0.1009
1394.00,-0.1008
1392.00,-0.1005
1390.00,-0.1001
1388.00,-0.0996
1386.00,-0.0992
1384.00,-0.0989
1382.00,-0.0988
1380.00,-0.0989
1378.00,-0.0989
1376.00,-0.0988
1374.00,-0.0988
1372.00,-0.0989
1370.00,-0.0991
1368.00,-0.0995
1366.00,-0.0999
1364.00,-0.1003
1362.00,-0.1006
1360.00,-0.1009
1358.00,-0.1011
1356.00,-0.1011
1354.00,-0.1012
1352.00,-0.1013
1350.00,-0.1014
1348.00,-0.1015
1346.00,-0.1015
1344.00,-0.1016
1342.00,-0.1016
1340.00,-0.1017
1338.00,-0.1017
1336.00,-0.1018
1334.00,-0.1018
1332.00,-0.1019
1330.00,-0.1018
1328.00,-0.1018
1326.00,-0.1017
1324.00,-0.1016
1322.00,-0.1015
1320.00,-0.1013
1318.00,-0.1012
1316.00,-0.1012
1314.00,-0.1011
1312.00,-0.1011
1310.00,-0.1011
1308.00,-0.1011
1306.00,-0.1012
1304.00,-0.1012
1302.00,-0.1012
1300.00,-0.1013
1298.00,-0.1013
1296.00,-0.1013
1294.00,-0.1013
1292.00,-0.1013
1290.00,-0.1013
1288.00,-0.1012
1286.00,-0.1010
1284.00,-0.1009
1282.00,-0.1008
1280.00,-0.1006
1278.00,-0.1004
1276.00,-0.1001
1274.00,-0.0999
1272.00,-0.0997
1270.00,-0.0996
1268.00,-0.0993
1266.00,-0.0988
1264.00,-0.0980
1262.00,-0.0969
1260.00,-0.0955
1258.00,-0.0941
1256.00,-0.0927
1254.00,-0.0911
1252.00,-0.0892
1250.00,-0.0872
1248.00,-0.0859
1246.00,-0.0856
1244.00,-0.0858
1242.00,-0.0858
1240.00,-0.0861
1238.00,-0.0872
1236.00,-0.0882
1234.00,-0.0893
1232.00,-0.0906
1230.00,-0.0922
1228.00,-0.0938
1226.00,-0.0954
1224.00,-0.0966
1222.00,-0.0977
1220.00,-0.0984
1218.00,-0.0990
1216.00,-0.0993
1214.00,-0.0997
1212.00,-0.1000
1210.00,-0.1002
1208.00,-0.1004
1206.00,-0.1006
1204.00,-0.1008
1202.00,-0.1009
1200.00,-0.1010
1198.00,-0.1010
1196.00,-0.1010
1194.00,-0.1011
1192.00,-0.1011
1190.00,-0.1011
1188.00,-0.1011
1186.00,-0.1012
1184.00,-0.1012
1182.00,-0.1013
1180.00,-0.1013
1178.00,-0.1013
1176.00,-0.1013
1174.00,-0.1013
1172.00,-0.1013
1170.00,-0.1012
1168.00,-0.1012
1166.00,-0.1012
1164.00,-0.1011
1162.00,-0.1010
1160.00,-0.1010
1158.00,-0.1010
1156.00,-0.1010
1154.00,-0.1010
1152.00,-0.1011
1150.00,-0.1011
1148.00,-0.1011
1146.00,-0.1012
1144.00,-0.1012
1142.00,-0.1011
1140.00,-0.1011
1138.00,-0.1011
1136.00,-0.1010
1134.00,-0.1010
1132.00,-0.1009
1130.00,-0.1009
1128.00,-0.1008
1126.00,-0.1008
1124.00,-0.1008
1122.00,-0.1008
1120.00,-0.1007
1118.00,-0.1007
1116.00,-0.1006
1114.00,-0.1004
1112.00,-0.1003
1110.00,-0.1003
1108.00,-0.1002
1106.00,-0.1001
1104.00,-0.1000
1102.00,-0.1000
1100.00,-0.0999
1098.00,-0.0999
1096.00,-0.0999
1094.00,-0.0999
1092.00,-0.0999
1090.00,-0.1000
1088.00,-0.1000
1086.00,-0.1000
1084.00,-0.1000
1082.00,-0.1000
1080.00,-0.0998
1078.00,-0.0997
1076.00,-0.0995
1074.00,-0.0992
1072.00,-0.0988
1070.00,-0.0983
1068.00,-0.0977
1066.00,-0.0971
1064.00,-0.0967
1062.00,-0.0964
1060.00,-0.0963
1058.00,-0.0962
1056.00,-0.0963
1054.00,-0.0963
1052.00,-0.0964
1050.00,-0.0967
1048.00,-0.0971
1046.00,-0.0975
1044.00,-0.0980
1042.00,-0.0985
1040.00,-0.0989
1038.00,-0.0993
1036.00,-0.0997
1034.00,-0.1000
1032.00,-0.1002
1030.00,-0.1004
1028.00,-0.1007
1026.00,-0.1008
1024.00,-0.1009
1022.00,-0.1011
1020.00,-0.1012
1018.00,-0.1012
1016.00,-0.1013
1014.00,-0.1013
1012.00,-0.1013
1010.00,-0.1013
1008.00,-0.1013
1006.00,-0.1013
1004.00,-0.1014
1002.00,-0.1014
1000.00,-0.1015
998.00,-0.1016
996.00,-0.1016
994.00,-0.1017
992.00,-0.1018
990.00,-0.1019
988.00,-0.1019
986.00,-0.1020
984.00,-0.1020
982.00,-0.1020
980.00,-0.1020
978.00,-0.1020
976.00,-0.1021
974.00,-0.1021
972.00,-0.1021
970.00,-0.1021
968.00,-0.1022
966.00,-0.1023
964.00,-0.1024
962.00,-0.1024
960.00,-0.1025
958.00,-0.1025
956.00,-0.1025
954.00,-0.1025
952.00,-0.1024
950.00,-0.1024
948.00,-0.1023
946.00,-0.1022
944.00,-0.1022
942.00,-0.1022
940.00,-0.1023
938.00,-0.1023
936.00,-0.1023
934.00,-0.1023
932.00,-0.1023
930.00,-0.1024
928.00,-0.1024
926.00,-0.1024
924.00,-0.1025
922.00,-0.1025
920.00,-0.1025
918.00,-0.1024
916.00,-0.1024
914.00,-0.1025
912.00,-0.1025
910.00,-0.1025
908.00,-0.1025
906.00,-0.1026
904.00,-0.1027
902.00,-0.1027
900.00,-0.1028
898.00,-0.1029
896.00,-0.1029
894.00,-0.1029
892.00,-0.1029
890.00,-0.1029
888.00,-0.1029
886.00,-0.1029
884.00,-0.1028
882.00,-0.1028
880.00,-0.1028
878.00,-0.1028
876.00,-0.1028
874.00,-0.1028
872.00,-0.1028
870.00,-0.1028
868.00,-0.1029
866.00,-0.1028
864.00,-0.1028
862.00,-0.1028
860.00,-0.1028
858.00,-0.1027
856.00,-0.1027
854.00,-0.1026
852.00,-0.1026
850.00,-0.1026
848.00,-0.1026
846.00,-0.1026
844.00,-0.1026
842.00,-0.1027
840.00,-0.1027
838.00,-0.1028
836.00,-0.1028
834.00,-0.1028
832.00,-0.1028
830.00,-0.1028
828.00,-0.1027
826.00,-0.1027
824.00,-0.1027
822.00,-0.1026
820.00,-0.1026
818.00,-0.1027
816.00,-0.1027
814.00,-0.1027
812.00,-0.1027
810.00,-0.1027
808.00,-0.1027
806.00,-0.1028
804.00,-0.1028
802.00,-0.1028
800.00,-0.1028
798.00,-0.1028
796.00,-0.1028
794.00,-0.1027
792.00,-0.1027
790.00,-0.1027
788.00,-0.1027
786.00,-0.1027
784.00,-0.1027
782.00,-0.1028
780.00,-0.1028
778.00,-0.1028
776.00,-0.1029
774.00,-0.1029
772.00,-0.1029
770.00,-0.1029
768.00,-0.1029
766.00,-0.1029
764.00,-0.1029
762.00,-0.1028
760.00,-0.1028
758.00,-0.1028
756.00,-0.1028
754.00,-0.1028
752.00,-0.1028
750.00,-0.1028
748.00,-0.1029
746.00,-0.1029
744.00,-0.1029
742.00,-0.1029
740.00,-0.1029
738.00,-0.1029
736.00,-0.1029
734.00,-0.1028
732.00,-0.1027
730.00,-0.1027
728.00,-0.1027
726.00,-0.1027
724.00,-0.1028
722.00,-0.1028
720.00,-0.1028
718.00,-0.1028
716.00,-0.1028
714.00,-0.1028
712.00,-0.1028
710.00,-0.1028
708.00,-0.1028
706.00,-0.1028
704.00,-0.1028
702.00,-0.1028
700.00,-0.1028
698.00,-0.1028
696.00,-0.1028
694.00,-0.1028
692.00,-0.1027
690.00,-0.1028
688.00,-0.1027
686.00,-0.1027
684.00,-0.1028
682.00,-0.1028
680.00,-0.1028
678.00,-0.1028
676.00,-0.1028
674.00,-0.1027
672.00,-0.1027
670.00,-0.1028
668.00,-0.1022
666.00,-0.1015
664.00,-0.1023
662.00,-0.1026
660.00,-0.1025
658.00,-0.1025
656.00,-0.1025
654.00,-0.1025
652.00,-0.1025
650.00,-0.1025
648.00,-0.1024
646.00,-0.1022
644.00,-0.1021
642.00,-0.1021
640.00,-0.1020
638.00,-0.1018
636.00,-0.1017
634.00,-0.1017
632.00,-0.1017
630.00,-0.1016
628.00,-0.1016
626.00,-0.1016
624.00,-0.1016
622.00,-0.1017
620.00,-0.1018
618.00,-0.1018
616.00,-0.1018
614.00,-0.1018
612.00,-0.1017
610.00,-0.1015
608.00,-0.1015
606.00,-0.1015
604.00,-0.1015
602.00,-0.1016
600.00,-0.1017
598.00,-0.1017
596.00,-0.1018
594.00,-0.1018
592.00,-0.1018
590.00,-0.1018
588.00,-0.1019
586.00,-0.1018
584.00,-0.1018
582.00,-0.1019
580.00,-0.1018
578.00,-0.1016
576.00,-0.1016
574.00,-0.1015
572.00,-0.1015
570.00,-0.1015
568.00,-0.1015
566.00,-0.1014
564.00,-0.1014
562.00,-0.1015
560.00,-0.1014
558.00,-0.1014
556.00,-0.1015
554.00,-0.1016
552.00,-0.1015
550.00,-0.1014
548.00,-0.1014
546.00,-0.1015
544.00,-0.1016
542.00,-0.1016
540.00,-0.1016
538.00,-0.1016
536.00,-0.1017
534.00,-0.1018
532.00,-0.1018
530.00,-0.1020
528.00,-0.1022
526.00,-0.1023
524.00,-0.1023
522.00,-0.1023
520.00,-0.1023
518.00,-0.1024
516.00,-0.1024
514.00,-0.1025
512.00,-0.1026
510.00,-0.1026
508.00,-0.1025
506.00,-0.1025
504.00,-0.1027
502.00,-0.1030
500.00,-0.1030
