Created as New Dataset,Sample 053 By Analyst Date Wednesday, April 02 2025
cm-1,A
4000.00,-0.1029
3998.00,-0.1029
3996.00,-0.1029
3994.00,-0.1029
3992.00,-0.1029
3990.00,-0.1029
3988.00,-0.1029
3986.00,-0.1028
3984.00,-0.1028
3982.00,-0.1027
3980.00,-0.1026
3978.00,-0.1026
3976.00,-0.1026
3974.00,-0.1025
3972.00,-0.1025
3970.00,-0.1025
3968.00,-0.1025
3966.00,-0.1026
3964.00,-0.1026
3962.00,-0.1026
3960.00,-0.1027
3958.00,-0.1026
3956.00,-0.1026
3954.00,-0.1026
3952.00,-0.1026
3950.00,-0.1025
3948.00,-0.1025
3946.00,-0.1025
3944.00,-0.1024
3942.00,-0.1024
3940.00,-0.1024
3938.00,-0.1024
3936.00,-0.1025
3934.00,-0.1025
3932.00,-0.1025
3930.00,-0.1026
3928.00,-0.1026
3926.00,-0.1025
3924.00,-0.1025
3922.00,-0.1025
3920.00,-0.1024
3918.00,-0.1023
3916.00,-0.1022
3914.00,-0.1021
3912.00,-0.1021
3910.00,-0.1021
3908.00,-0.1023
3906.00,-0.1024
3904.00,-0.1025
3902.00,-0.1026
3900.00,-0.1025
3898.00,-0.1024
3896.00,-0.1025
3894.00,-0.1025
3892.00,-0.1023
3890.00,-0.1024
3888.00,-0.1024
3886.00,-0.1022
3884.00,-0.1024
3882.00,-0.1023
3880.00,-0.1021
3878.00,-0.1024
3876.00,-0.1023
3874.00,-0.1024
3872.00,-0.1025
3870.00,-0.1024
3868.00,-0.1027
3866.00,-0.1026
3864.00,-0.1025
3862.00,-0.1024
3860.00,-0.1024
3858.00,-0.1025
3856.00,-0.1025
3854.00,-0.1020
3852.00,-0.1021
3850.00,-0.1024
3848.00,-0.1022
3846.00,-0.1022
3844.00,-0.1022
3842.00,-0.1024
3840.00,-0.1024
3838.00,-0.1023
3836.00,-0.1024
3834.00,-0.1024
3832.00,-0.1022
3830.00,-0.1022
3828.00,-0.1021
3826.00,-0.1021
3824.00,-0.1022
3822.00,-0.1019
3820.00,-0.1020
3818.00,-0.1020
3816.00,-0.1016
3814.00,-0.1017
3812.00,-0.1017
3810.00,-0.1018
3808.00,-0.1017
3806.00,-0.1019
3804.00,-0.1022
3802.00,-0.1018
3800.00,-0.1020
3798.00,-0.1019
3796.00,-0.1016
3794.00,-0.1016
3792.00,-0.1014
3790.00,-0.1013
3788.00,-0.1013
3786.00,-0.1013
3784.00,-0.1014
3782.00,-0.1016
3780.00,-0.1015
3778.00,-0.1015
3776.00,-0.1016
3774.00,-0.1017
3772.00,-0.1018
3770.00,-0.1017
3768.00,-0.1018
3766.00,-0.1017
3764.00,-0.1017
3762.00,-0.1018
3760.00,-0.1017
3758.00,-0.1017
3756.00,-0.1018
3754.00,-0.1019
3752.00,-0.1019
3750.00,-0.1018
3748.00,-0.1022
3746.00,-0.1018
3744.00,-0.1014
3742.00,-0.1020
3740.00,-0.1019
3738.00,-0.1019
3736.00,-0.1018
3734.00,-0.1017
3732.00,-0.1014
3730.00,-0.1014
3728.00,-0.1012
3726.00,-0.1011
3724.00,-0.1011
3722.00,-0.1010
3720.00,-0.1010
3718.00,-0.1010
3716.00,-0.1011
3714.00,-0.1013
3712.00,-0.1013
3710.00,-0.1014
3708.00,-0.1015
3706.00,-0.1015
3704.00,-0.1015
3702.00,-0.1014
3700.00,-0.1014
3698.00,-0.1015
3696.00,-0.1016
3694.00,-0.1018
3692.00,-0.1021
3690.00,-0.1020
3688.00,-0.1020
3686.00,-0.1023
3684.00,-0.1023
3682.00,-0.1024
3680.00,-0.1026
3678.00,-0.1029
3676.00,-0.1027
3674.00,-0.1029
3672.00,-0.1028
3670.00,-0.1025
3668.00,-0.1024
3666.00,-0.1022
3664.00,-0.1020
3662.00,-0.1020
3660.00,-0.1020
3658.00,-0.1020
3656.00,-0.1020
3654.00,-0.1024
3652.00,-0.1026
3650.00,-0.1025
3648.00,-0.1024
3646.00,-0.1024
3644.00,-0.1021
3642.00,-0.1019
3640.00,-0.1017
3638.00,-0.1017
3636.00,-0.1017
3634.00,-0.1017
3632.00,-0.1020
3630.00,-0.1018
3628.00,-0.1017
3626.00,-0.1020
3624.00,-0.1020
3622.00,-0.1021
3620.00,-0.1021
3618.00,-0.1022
3616.00,-0.1023
3614.00,-0.1023
3612.00,-0.1022
3610.00,-0.1022
3608.00,-0.1020
3606.00,-0.1020
3604.00,-0.1019
3602.00,-0.1019
3600.00,-0.1019
3598.00,-0.1019
3596.00,-0.1019
3594.00,-0.1019
3592.00,-0.1021
3590.00,-0.1022
3588.00,-0.1021
3586.00,-0.1021
3584.00,-0.1021
3582.00,-0.1021
3580.00,-0.1020
3578.00,-0.1020
3576.00,-0.1020
3574.00,-0.1020
3572.00,-0.1020
3570.00,-0.1022
3568.00,-0.1022
3566.00,-0.1022
3564.00,-0.1023
3562.00,-0.1022
3560.00,-0.1022
3558.00,-0.1022
3556.00,-0.1023
3554.00,-0.1024
3552.00,-0.1024
3550.00,-0.1024
3548.00,-0.1024
3546.00,-0.1023
3544.00,-0.1022
3542.00,-0.1021
3540.00,-0.1021
3538.00,-0.1020
3536.00,-0.1020
3534.00,-0.1020
3532.00,-0.1021
3530.00,-0.1022
3528.00,-0.1022
3526.00,-0.1023
3524.00,-0.1023
3522.00,-0.1022
3520.00,-0.1022
3518.00,-0.1021
3516.00,-0.1021
3514.00,-0.1020
3512.00,-0.1020
3510.00,-0.1019
3508.00,-0.1019
3506.00,-0.1019
3504.00,-0.1019
3502.00,-0.1019
3500.00,-0.1019
3498.00,-0.1020
3496.00,-0.1020
3494.00,-0.1021
3492.00,-0.1021
3490.00,-0.1022
3488.00,-0.1022
3486.00,-0.1022
3484.00,-0.1022
3482.00,-0.1022
3480.00,-0.1022
3478.00,-0.1021
3476.00,-0.1021
3474.00,-0.1021
3472.00,-0.1021
3470.00,-0.1022
3468.00,-0.1023
3466.00,-0.1024
3464.00,-0.1025
3462.00,-0.1025
3460.00,-0.1026
3458.00,-0.1026
3456.00,-0.1026
3454.00,-0.1026
3452.00,-0.1026
3450.00,-0.1026
3448.00,-0.1026
3446.00,-0.1026
3444.00,-0.1026
3442.00,-0.1026
3440.00,-0.1027
3438.00,-0.1027
3436.00,-0.1027
3434.00,-0.1028
3432.00,-0.1029
3430.00,-0.1029
3428.00,-0.1030
3426.00,-0.1030
3424.00,-0.1030
3422.00,-0.1029
3420.00,-0.1028
3418.00,-0.1027
3416.00,-0.1026
3414.00,-0.1025
3412.00,-0.1024
3410.00,-0.1023
3408.00,-0.1023
3406.00,-0.1022
3404.00,-0.1022
3402.00,-0.1022
3400.00,-0.1021
3398.00,-0.1021
3396.00,-0.1021
3394.00,-0.1020
3392.00,-0.1019
3390.00,-0.1019
3388.00,-0.1018
3386.00,-0.1017
3384.00,-0.1016
3382.00,-0.1016
3380.00,-0.1015
3378.00,-0.1015
3376.00,-0.1015
3374.00,-0.1015
3372.00,-0.1015
3370.00,-0.1016
3368.00,-0.1016
3366.00,-0.1016
3364.00,-0.1016
3362.00,-0.1016
3360.00,-0.1015
3358.00,-0.1015
3356.00,-0.1014
3354.00,-0.1013
3352.00,-0.1013
3350.00,-0.1013
3348.00,-0.1013
3346.00,-0.1013
3344.00,-0.1014
3342.00,-0.1015
3340.00,-0.1015
3338.00,-0.1016
3336.00,-0.1017
3334.00,-0.1017
3332.00,-0.1018
3330.00,-0.1017
3328.00,-0.1017
3326.00,-0.1017
3324.00,-0.1017
3322.00,-0.1016
3320.00,-0.1016
3318.00,-0.1017
3316.00,-0.1017
3314.00,-0.1018
3312.00,-0.1019
3310.00,-0.1020
3308.00,-0.1022
3306.00,-0.1023
3304.00,-0.1025
3302.00,-0.1025
3300.00,-0.1025
3298.00,-0.1024
3296.00,-0.1023
3294.00,-0.1021
3292.00,-0.1019
3290.00,-0.1018
3288.00,-0.1016
3286.00,-0.1015
3284.00,-0.1014
3282.00,-0.1014
3280.00,-0.1014
3278.00,-0.1014
3276.00,-0.1014
3274.00,-0.1014
3272.00,-0.1014
3270.00,-0.1013
3268.00,-0.1013
3266.00,-0.1013
3264.00,-0.1012
3262.00,-0.1011
3260.00,-0.1011
3258.00,-0.1011
3256.00,-0.1010
3254.00,-0.1010
3252.00,-0.1011
3250.00,-0.1011
3248.00,-0.1012
3246.00,-0.1012
3244.00,-0.1013
3242.00,-0.1014
3240.00,-0.1014
3238.00,-0.1014
3236.00,-0.1014
3234.00,-0.1014
3232.00,-0.1014
3230.00,-0.1013
3228.00,-0.1013
3226.00,-0.1013
3224.00,-0.1013
3222.00,-0.1013
3220.00,-0.1014
3218.00,-0.1015
3216.00,-0.1016
3214.00,-0.1016
3212.00,-0.1017
3210.00,-0.1018
3208.00,-0.1018
3206.00,-0.1018
3204.00,-0.1018
3202.00,-0.1018
3200.00,-0.1018
3198.00,-0.1017
3196.00,-0.1017
3194.00,-0.1017
3192.00,-0.1016
3190.00,-0.1016
3188.00,-0.1017
3186.00,-0.1017
3184.00,-0.1018
3182.00,-0.1019
3180.00,-0.1019
3178.00,-0.1020
3176.00,-0.1020
3174.00,-0.1019
3172.00,-0.1019
3170.00,-0.1018
3168.00,-0.1018
3166.00,-0.1017
3164.00,-0.1017
3162.00,-0.1017
3160.00,-0.1017
3158.00,-0.1017
3156.00,-0.1017
3154.00,-0.1018
3152.00,-0.1018
3150.00,-0.1019
3148.00,-0.1019
3146.00,-0.1019
3144.00,-0.1019
3142.00,-0.1019
3140.00,-0.1019
3138.00,-0.1018
3136.00,-0.1018
3134.00,-0.1018
3132.00,-0.1018
3130.00,-0.1018
3128.00,-0.1018
3126.00,-0.1018
3124.00,-0.1019
3122.00,-0.1020
3120.00,-0.1020
3118.00,-0.1021
3116.00,-0.1022
3114.00,-0.1023
3112.00,-0.1023
3110.00,-0.1023
3108.00,-0.1024
3106.00,-0.1024
3104.00,-0.1023
3102.00,-0.1023
3100.00,-0.1023
3098.00,-0.1023
3096.00,-0.1023
3094.00,-0.1023
3092.00,-0.1024
3090.00,-0.1025
3088.00,-0.1026
3086.00,-0.1027
3084.00,-0.1028
3082.00,-0.1029
3080.00,-0.1029
3078.00,-0.1029
3076.00,-0.1029
3074.00,-0.1029
3072.00,-0.1028
3070.00,-0.1028
3068.00,-0.1028
3066.00,-0.1028
3064.00,-0.1028
3062.00,-0.1028
3060.00,-0.1028
3058.00,-0.1029
3056.00,-0.1029
3054.00,-0.1029
3052.00,-0.1029
3050.00,-0.1029
3048.00,-0.1029
3046.00,-0.1029
3044.00,-0.1028
3042.00,-0.1028
3040.00,-0.1027
3038.00,-0.1027
3036.00,-0.1027
3034.00,-0.1027
3032.00,-0.1027
3030.00,-0.1027
3028.00,-0.1028
3026.00,-0.1028
3024.00,-0.1028
3022.00,-0.1028
3020.00,-0.1028
3018.00,-0.1027
3016.00,-0.1026
3014.00,-0.1024
3012.00,-0.1023
3010.00,-0.1022
3008.00,-0.1021
3006.00,-0.1019
3004.00,-0.1018
3002.00,-0.1017
3000.00,-0.1015
2998.00,-0.1014
2996.00,-0.1013
2994.00,-0.1014
2992.00,-0.1015
2990.00,-0.1016
2988.00,-0.1017
2986.00,-0.1017
2984.00,-0.1017
2982.00,-0.1017
2980.00,-0.1017
2978.00,-0.1018
2976.00,-0.1019
2974.00,-0.1019
2972.00,-0.1020
2970.00,-0.1021
2968.00,-0.1022
2966.00,-0.1022
2964.00,-0.1023
2962.00,-0.1023
2960.00,-0.1024
2958.00,-0.1024
2956.00,-0.1024
2954.00,-0.1024
2952.00,-0.1023
2950.00,-0.1023
2948.00,-0.1022
2946.00,-0.1022
2944.00,-0.1022
2942.00,-0.1022
2940.00,-0.1023
2938.00,-0.1023
2936.00,-0.1024
2934.00,-0.1025
2932.00,-0.1026
2930.00,-0.1026
2928.00,-0.1027
2926.00,-0.1027
2924.00,-0.1027
2922.00,-0.1027
2920.00,-0.1026
2918.00,-0.1026
2916.00,-0.1025
2914.00,-0.1024
2912.00,-0.1023
2910.00,-0.1023
2908.00,-0.1023
2906.00,-0.1024
2904.00,-0.1024
2902.00,-0.1025
2900.00,-0.1025
2898.00,-0.1026
2896.00,-0.1027
2894.00,-0.1027
2892.00,-0.1027
2890.00,-0.1027
2888.00,-0.1026
2886.00,-0.1026
2884.00,-0.1026
2882.00,-0.1025
2880.00,-0.1025
2878.00,-0.1025
2876.00,-0.1026
2874.00,-0.1026
2872.00,-0.1027
2870.00,-0.1027
2868.00,-0.1028
2866.00,-0.1029
2864.00,-0.1029
2862.00,-0.1029
2860.00,-0.1029
2858.00,-0.1028
2856.00,-0.1028
2854.00,-0.1027
2852.00,-0.1027
2850.00,-0.1027
2848.00,-0.1026
2846.00,-0.1026
2844.00,-0.1026
2842.00,-0.1027
2840.00,-0.1027
2838.00,-0.1028
2836.00,-0.1028
2834.00,-0.1029
2832.00,-0.1029
2830.00,-0.1029
2828.00,-0.1028
2826.00,-0.1028
2824.00,-0.1027
2822.00,-0.1026
2820.00,-0.1025
2818.00,-0.1025
2816.00,-0.1025
2814.00,-0.1025
2812.00,-0.1025
2810.00,-0.1026
2808.00,-0.1026
2806.00,-0.1027
2804.00,-0.1028
2802.00,-0.1028
2800.00,-0.1028
2798.00,-0.1028
2796.00,-0.1027
2794.00,-0.1027
2792.00,-0.1026
2790.00,-0.1025
2788.00,-0.1024
2786.00,-0.1024
2784.00,-0.1023
2782.00,-0.1023
2780.00,-0.1024
2778.00,-0.1024
2776.00,-0.1024
2774.00,-0.1025
2772.00,-0.1025
2770.00,-0.1025
2768.00,-0.1025
2766.00,-0.1025
2764.00,-0.1024
2762.00,-0.1023
2760.00,-0.1023
2758.00,-0.1022
2756.00,-0.1022
2754.00,-0.1022
2752.00,-0.1022
2750.00,-0.1022
2748.00,-0.1023
2746.00,-0.1023
2744.00,-0.1024
2742.00,-0.1025
2740.00,-0.1025
2738.00,-0.1025
2736.00,-0.1025
2734.00,-0.1025
2732.00,-0.1024
2730.00,-0.1023
2728.00,-0.1022
2726.00,-0.1021
2724.00,-0.1020
2722.00,-0.1020
2720.00,-0.1020
2718.00,-0.1020
2716.00,-0.1020
2714.00,-0.1020
2712.00,-0.1021
2710.00,-0.1021
2708.00,-0.1021
2706.00,-0.1021
2704.00,-0.1021
2702.00,-0.1020
2700.00,-0.1019
2698.00,-0.1019
2696.00,-0.1018
2694.00,-0.1018
2692.00,-0.1017
2690.00,-0.1017
2688.00,-0.1017
2686.00,-0.1018
2684.00,-0.1019
2682.00,-0.1019
2680.00,-0.1020
2678.00,-0.1020
2676.00,-0.1021
2674.00,-0.1021
2672.00,-0.1021
2670.00,-0.1020
2668.00,-0.1019
2666.00,-0.1018
2664.00,-0.1017
2662.00,-0.1016
2660.00,-0.1016
2658.00,-0.1015
2656.00,-0.1015
2654.00,-0.1015
2652.00,-0.1016
2650.00,-0.1016
2648.00,-0.1016
2646.00,-0.1016
2644.00,-0.1016
2642.00,-0.1016
2640.00,-0.1015
2638.00,-0.1015
2636.00,-0.1014
2634.00,-0.1013
2632.00,-0.1013
2630.00,-0.1013
2628.00,-0.1013
2626.00,-0.1013
2624.00,-0.1014
2622.00,-0.1014
2620.00,-0.1015
2618.00,-0.1016
2616.00,-0.1017
2614.00,-0.1017
2612.00,-0.1017
2610.00,-0.1017
2608.00,-0.1017
2606.00,-0.1016
2604.00,-0.1015
2602.00,-0.1015
2600.00,-0.1014
2598.00,-0.1014
2596.00,-0.1014
2594.00,-0.1014
2592.00,-0.1015
2590.00,-0.1015
2588.00,-0.1016
2586.00,-0.1016
2584.00,-0.1017
2582.00,-0.1017
2580.00,-0.1017
2578.00,-0.1016
2576.00,-0.1016
2574.00,-0.1015
2572.00,-0.1014
2570.00,-0.1013
2568.00,-0.1012
2566.00,-0.1012
2564.00,-0.1012
2562.00,-0.1012
2560.00,-0.1012
2558.00,-0.1013
2556.00,-0.1013
2554.00,-0.1013
2552.00,-0.1013
2550.00,-0.1013
2548.00,-0.1012
2546.00,-0.1012
2544.00,-0.1011
2542.00,-0.1010
2540.00,-0.1009
2538.00,-0.1009
2536.00,-0.1008
2534.00,-0.1008
2532.00,-0.1008
2530.00,-0.1009
2528.00,-0.1009
2526.00,-0.1010
2524.00,-0.1010
2522.00,-0.1010
2520.00,-0.1010
2518.00,-0.1010
2516.00,-0.1009
2514.00,-0.1008
2512.00,-0.1007
2510.00,-0.1006
2508.00,-0.1005
2506.00,-0.1004
2504.00,-0.1004
2502.00,-0.1003
2500.00,-0.1003
2498.00,-0.1003
2496.00,-0.1003
2494.00,-0.1004
2492.00,-0.1004
2490.00,-0.1004
2488.00,-0.1004
2486.00,-0.1004
2484.00,-0.1004
2482.00,-0.1003
2480.00,-0.1002
2478.00,-0.1001
2476.00,-0.1000
2474.00,-0.1000
2472.00,-0.0999
2470.00,-0.0999
2468.00,-0.0999
2466.00,-0.1000
2464.00,-0.1000
2462.00,-0.1001
2460.00,-0.1001
2458.00,-0.1001
2456.00,-0.1001
2454.00,-0.1001
2452.00,-0.1001
2450.00,-0.1001
2448.00,-0.1000
2446.00,-0.1000
2444.00,-0.1000
2442.00,-0.1000
2440.00,-0.1001
2438.00,-0.1001
2436.00,-0.1002
2434.00,-0.1003
2432.00,-0.1004
2430.00,-0.1005
2428.00,-0.1006
2426.00,-0.1007
2424.00,-0.1008
2422.00,-0.1008
2420.00,-0.1008
2418.00,-0.1008
2416.00,-0.1007
2414.00,-0.1007
2412.00,-0.1006
2410.00,-0.1006
2408.00,-0.1006
2406.00,-0.1006
2404.00,-0.1006
2402.00,-0.1006
2400.00,-0.1006
2398.00,-0.1007
2396.00,-0.1007
2394.00,-0.1007
2392.00,-0.1006
2390.00,-0.1006
2388.00,-0.1005
2386.00,-0.1005
2384.00,-0.1005
2382.00,-0.1006
2380.00,-0.0999
2378.00,-0.0998
2376.00,-0.1003
2374.00,-0.1007
2372.00,-0.1007
2370.00,-0.1006
2368.00,-0.1006
2366.00,-0.1006
2364.00,-0.1006
2362.00,-0.1006
2360.00,-0.1006
2358.00,-0.1005
2356.00,-0.1004
2354.00,-0.1003
2352.00,-0.1003
2350.00,-0.1003
2348.00,-0.1005
2346.00,-0.1010
2344.00,-0.1010
2342.00,-0.1006
2340.00,-0.1004
2338.00,-0.1003
2336.00,-0.1003
2334.00,-0.1003
2332.00,-0.1004
2330.00,-0.1004
2328.00,-0.1003
2326.00,-0.1001
2324.00,-0.1000
2322.00,-0.0999
2320.00,-0.0998
2318.00,-0.0997
2316.00,-0.0997
2314.00,-0.0997
2312.00,-0.0998
2310.00,-0.0999
2308.00,-0.1000
2306.00,-0.1000
2304.00,-0.1000
2302.00,-0.1001
2300.00,-0.1001
2298.00,-0.1001
2296.00,-0.1000
2294.00,-0.1000
2292.00,-0.0999
2290.00,-0.0998
2288.00,-0.0998
2286.00,-0.0997
2284.00,-0.0997
2282.00,-0.0997
2280.00,-0.0997
2278.00,-0.0998
2276.00,-0.0999
2274.00,-0.0999
2272.00,-0.1000
2270.00,-0.1000
2268.00,-0.1000
2266.00,-0.1000
2264.00,-0.1000
2262.00,-0.0999
2260.00,-0.0998
2258.00,-0.0998
2256.00,-0.0997
2254.00,-0.0997
2252.00,-0.0997
2250.00,-0.0997
2248.00,-0.0997
2246.00,-0.0998
2244.00,-0.0998
2242.00,-0.0998
2240.00,-0.0998
2238.00,-0.0998
2236.00,-0.0998
2234.00,-0.0997
2232.00,-0.0996
2230.00,-0.0995
2228.00,-0.0994
2226.00,-0.0993
2224.00,-0.0993
2222.00,-0.0992
2220.00,-0.0992
2218.00,-0.0992
2216.00,-0.0992
2214.00,-0.0993
2212.00,-0.0993
2210.00,-0.0994
2208.00,-0.0994
2206.00,-0.0994
2204.00,-0.0993
2202.00,-0.0993
2200.00,-0.0992
2198.00,-0.0991
2196.00,-0.0990
2194.00,-0.0989
2192.00,-0.0988
2190.00,-0.0987
2188.00,-0.0987
2186.00,-0.0987
2184.00,-0.0987
2182.00,-0.0988
2180.00,-0.0988
2178.00,-0.0989
2176.00,-0.0989
2174.00,-0.0989
2172.00,-0.0989
2170.00,-0.0989
2168.00,-0.0989
2166.00,-0.0989
2164.00,-0.0988
2162.00,-0.0988
2160.00,-0.0989
2158.00,-0.0989
2156.00,-0.0989
2154.00,-0.0990
2152.00,-0.0990
2150.00,-0.0990
2148.00,-0.0991
2146.00,-0.0991
2144.00,-0.0991
2142.00,-0.0990
2140.00,-0.0990
2138.00,-0.0989
2136.00,-0.0988
2134.00,-0.0987
2132.00,-0.0986
2130.00,-0.0985
2128.00,-0.0985
2126.00,-0.0985
2124.00,-0.0986
2122.00,-0.0986
2120.00,-0.0987
2118.00,-0.0987
2116.00,-0.0988
2114.00,-0.0988
2112.00,-0.0988
2110.00,-0.0988
2108.00,-0.0988
2106.00,-0.0987
2104.00,-0.0986
2102.00,-0.0985
2100.00,-0.0985
2098.00,-0.0985
2096.00,-0.0985
2094.00,-0.0985
2092.00,-0.0985
2090.00,-0.0986
2088.00,-0.0987
2086.00,-0.0987
2084.00,-0.0988
2082.00,-0.0989
2080.00,-0.0989
2078.00,-0.0989
2076.00,-0.0988
2074.00,-0.0988
2072.00,-0.0987
2070.00,-0.0987
2068.00,-0.0986
2066.00,-0.0986
2064.00,-0.0986
2062.00,-0.0986
2060.00,-0.0986
2058.00,-0.0986
2056.00,-0.0986
2054.00,-0.0987
2052.00,-0.0987
2050.00,-0.0987
2048.00,-0.0987
2046.00,-0.0987
2044.00,-0.0987
2042.00,-0.0987
2040.00,-0.0986
2038.00,-0.0986
2036.00,-0.0986
2034.00,-0.0986
2032.00,-0.0986
2030.00,-0.0987
2028.00,-0.0987
2026.00,-0.0987
2024.00,-0.0987
2022.00,-0.0987
2020.00,-0.0987
2018.00,-0.0987
2016.00,-0.0986
2014.00,-0.0986
2012.00,-0.0985
2010.00,-0.0985
2008.00,-0.0985
2006.00,-0.0985
2004.00,-0.0985
2002.00,-0.0985
2000.00,-0.0986
1998.00,-0.0987
1996.00,-0.0988
1994.00,-0.0990
1992.00,-0.0991
1990.00,-0.0993
1988.00,-0.0994
1986.00,-0.0995
1984.00,-0.0995
1982.00,-0.0996
1980.00,-0.0996
1978.00,-0.0996
1976.00,-0.0995
1974.00,-0.0995
1972.00,-0.0994
1970.00,-0.0993
1968.00,-0.0993
1966.00,-0.0993
1964.00,-0.0993
1962.00,-0.0994
1960.00,-0.0996
1958.00,-0.0997
1956.00,-0.0998
1954.00,-0.1000
1952.00,-0.1001
1950.00,-0.1001
1948.00,-0.1001
1946.00,-0.1001
1944.00,-0.1000
1942.00,-0.0999
1940.00,-0.0998
1938.00,-0.0997
1936.00,-0.0996
1934.00,-0.0994
1932.00,-0.0994
1930.00,-0.0993
1928.00,-0.0993
1926.00,-0.0993
1924.00,-0.0992
1922.00,-0.0993
1920.00,-0.0992
1918.00,-0.0992
1916.00,-0.0992
1914.00,-0.0991
1912.00,-0.0990
1910.00,-0.0989
1908.00,-0.0989
1906.00,-0.0989
1904.00,-0.0989
1902.00,-0.0989
1900.00,-0.0990
1898.00,-0.0990
1896.00,-0.0991
1894.00,-0.0991
1892.00,-0.0991
1890.00,-0.0991
1888.00,-0.0992
1886.00,-0.0992
1884.00,-0.0992
1882.00,-0.0992
1880.00,-0.0992
1878.00,-0.0993
1876.00,-0.0993
1874.00,-0.0994
1872.00,-0.0995
1870.00,-0.0995
1868.00,-0.0996
1866.00,-0.0996
1864.00,-0.0996
1862.00,-0.0996
1860.00,-0.0996
1858.00,-0.0997
1856.00,-0.0997
1854.00,-0.0998
1852.00,-0.0999
1850.00,-0.0999
1848.00,-0.1000
1846.00,-0.1001
1844.00,-0.1002
1842.00,-0.1003
1840.00,-0.1004
1838.00,-0.1004
1836.00,-0.1004
1834.00,-0.1005
1832.00,-0.1004
1830.00,-0.1004
1828.00,-0.1004
1826.00,-0.1004
1824.00,-0.1004
1822.00,-0.1004
1820.00,-0.1004
1818.00,-0.1005
1816.00,-0.1005
1814.00,-0.1006
1812.00,-0.1007
1810.00,-0.1008
1808.00,-0.1009
1806.00,-0.1010
1804.00,-0.1011
1802.00,-0.1012
1800.00,-0.1012
1798.00,-0.1013
1796.00,-0.1013
1794.00,-0.1012
1792.00,-0.1011
1790.00,-0.1008
1788.00,-0.1006
1786.00,-0.1003
1784.00,-0.0998
1782.00,-0.0994
1780.00,-0.0988
1778.00,-0.0981
1776.00,-0.0974
1774.00,-0.0965
1772.00,-0.0956
1770.00,-0.0953
1768.00,-0.0957
1766.00,-0.0964
1764.00,-0.0965
1762.00,-0.0960
1760.00,-0.0956
1758.00,-0.0956
1756.00,-0.0961
1754.00,-0.0967
1752.00,-0.0976
1750.00,-0.0984
1748.00,-0.0991
1746.00,-0.0997
1744.00,-0.1002
1742.00,-0.1006
1740.00,-0.1010
1738.00,-0.1012
1736.00,-0.1014
1734.00,-0.1016
1732.00,-0.1016
1730.00,-0.1016
1728.00,-0.1016
1726.00,-0.1016
1724.00,-0.1016
1722.00,-0.1017
1720.00,-0.1017
1718.00,-0.1017
1716.00,-0.1018
1714.00,-0.1019
1712.00,-0.1019
1710.00,-0.1020
1708.00,-0.1020
1706.00,-0.1020
1704.00,-0.1020
1702.00,-0.1020
1700.00,-0.1019
1698.00,-0.1019
1696.00,-0.1019
1694.00,-0.1018
1692.00,-0.1018
1690.00,-0.1017
1688.00,-0.1017
1686.00,-0.1018
1684.00,-0.1018
1682.00,-0.1018
1680.00,-0.1019
1678.00,-0.1019
1676.00,-0.1019
1674.00,-0.1019
1672.00,-0.1019
1670.00,-0.1018
1668.00,-0.1017
1666.00,-0.1017
1664.00,-0.1016
1662.00,-0.1015
1660.00,-0.1015
1658.00,-0.1015
1656.00,-0.1014
1654.00,-0.1013
1652.00,-0.1015
1650.00,-0.1015
1648.00,-0.1016
1646.00,-0.1016
1644.00,-0.1017
1642.00,-0.1018
1640.00,-0.1018
1638.00,-0.1018
1636.00,-0.1018
1634.00,-0.1017
1632.00,-0.1016
1630.00,-0.1016
1628.00,-0.1015
1626.00,-0.1015
1624.00,-0.1015
1622.00,-0.1015
1620.00,-0.1015
1618.00,-0.1015
1616.00,-0.1016
1614.00,-0.1017
1612.00,-0.1017
1610.00,-0.1018
1608.00,-0.1018
1606.00,-0.1018
1604.00,-0.1018
1602.00,-0.1018
1600.00,-0.1017
1598.00,-0.1017
1596.00,-0.1017
1594.00,-0.1016
1592.00,-0.1017
1590.00,-0.1017
1588.00,-0.1018
1586.00,-0.1018
1584.00,-0.1019
1582.00,-0.1019
1580.00,-0.1019
1578.00,-0.1019
1576.00,-0.1019
1574.00,-0.1018
1572.00,-0.1018
1570.00,-0.1016
1568.00,-0.1016
1566.00,-0.1015
1564.00,-0.1014
1562.00,-0.1014
1560.00,-0.1014
1558.00,-0.1014
1556.00,-0.1015
1554.00,-0.1016
1552.00,-0.1016
1550.00,-0.1017
1548.00,-0.1018
1546.00,-0.1019
1544.00,-0.1019
1542.00,-0.1019
1540.00,-0.1018
1538.00,-0.1019
1536.00,-0.1018
1534.00,-0.1016
1532.00,-0.1015
1530.00,-0.1015
1528.00,-0.1015
1526.00,-0.1015
1524.00,-0.1015
1522.00,-0.1015
1520.00,-0.1015
1518.00,-0.1016
1516.00,-0.1016
1514.00,-0.1016
1512.00,-0.1015
1510.00,-0.1015
1508.00,-0.1015
1506.00,-0.1014
1504.00,-0.1014
1502.00,-0.1015
1500.00,-0.1015
1498.00,-0.1015
1496.00,-0.1014
1494.00,-0.1015
1492.00,-0.1015
1490.00,-0.1016
1488.00,-0.1016
1486.00,-0.1016
1484.00,-0.1016
1482.00,-0.1016
1480.00,-0.1015
1478.00,-0.1015
1476.00,-0.1014
1474.00,-0.1015
1472.00,-0.1015
1470.00,-0.1015
1468.00,-0.1015
1466.00,-0.1015
1464.00,-0.1015
1462.00,-0.1016
1460.00,-0.1016
1458.00,-0.1016
1456.00,-0.1016
1454.00,-0.1016
1452.00,-0.1015
1450.00,-0.1015
1448.00,-0.1015
1446.00,-0.1014
1444.00,-0.1014
1442.00,-0.1014
1440.00,-0.1014
1438.00,-0.1013
1436.00,-0.1013
1434.00,-0.1014
1432.00,-0.1015
1430.00,-0.1016
1428.00,-0.1016
1426.00,-0.1017
1424.00,-0.1017
1422.00,-0.1017
1420.00,-0.1017
1418.00,-0.1016
1416.00,-0.1016
1414.00,-0.1015
1412.00,-0.1015
1410.00,-0.1014
1408.00,-0.1013
1406.00,-0.1013
1404.00,-0.1013
1402.00,-0.1013
1400.00,-0.1013
1398.00,-0.1013
1396.00,-0.1013
1394.00,-0.1012
1392.00,-0.1011
1390.00,-0.1008
1388.00,-0.1005
1386.00,-0.1002
1384.00,-0.1000
1382.00,-0.0999
1380.00,-0.0999
1378.00,-0.0999
1376.00,-0.0999
1374.00,-0.0998
1372.00,-0.0999
1370.00,-0.1001
1368.00,-0.1004
1366.00,-0.1006
1364.00,-0.1009
1362.00,-0.1011
1360.00,-0.1013
1358.00,-0.1014
1356.00,-0.1014
1354.00,-0.1014
1352.00,-0.1015
1350.00,-0.1015
1348.00,-0.1015
1346.00,-0.1016
1344.00,-0.1016
1342.00,-0.1017
1340.00,-0.1017
1338.00,-0.1018
1336.00,-0.1018
1334.00,-0.1019
1332.00,-0.1019
1330.00,-0.1019
1328.00,-0.1019
1326.00,-0.1018
1324.00,-0.1017
1322.00,-0.1016
1320.00,-0.1015
1318.00,-0.1014
1316.00,-0.1014
1314.00,-0.1013
1312.00,-0.1013
1310.00,-0.1013
1308.00,-0.1014
1306.00,-0.1014
1304.00,-0.1014
1302.00,-0.1015
1300.00,-0.1015
1298.00,-0.1015
1296.00,-0.1015
1294.00,-0.1015
1292.00,-0.1015
1290.00,-0.1014
1288.00,-0.1013
1286.00,-0.1013
1284.00,-0.1012
1282.00,-0.1011
1280.00,-0.1010
1278.00,-0.1008
1276.00,-0.1007
1274.00,-0.1005
1272.00,-0.1005
1270.00,-0.1004
1268.00,-0.1002
1266.00,-0.0999
1264.00,-0.0994
1262.00,-0.0986
1260.00,-0.0977
1258.00,-0.0967
1256.00,-0.0958
1254.00,-0.0948
1252.00,-0.0936
1250.00,-0.0923
1248.00,-0.0915
1246.00,-0.0913
1244.00,-0.0915
1242.00,-0.0915
1240.00,-0.0917
1238.00,-0.0924
1236.00,-0.0931
1234.00,-0.0937
1232.00,-0.0945
1230.00,-0.0956
1228.00,-0.0966
1226.00,-0.0976
1224.00,-0.0984
1222.00,-0.0990
1220.00,-0.0995
1218.00,-0.0998
1216.00,-0.1001
1214.00,-0.1003
1212.00,-0.1005
1210.00,-0.1007
1208.00,-0.1008
1206.00,-0.1009
1204.00,-0.1010
1202.00,-0.1011
1200.00,-0.1011
1198.00,-0.1011
1196.00,-0.1011
1194.00,-0.1011
1192.00,-0.1012
1190.00,-0.1012
1188.00,-0.1012
1186.00,-0.1012
1184.00,-0.1013
1182.00,-0.1013
1180.00,-0.1013
1178.00,-0.1013
1176.00,-0.1013
1174.00,-0.1013
1172.00,-0.1013
1170.00,-0.1013
1168.00,-0.1012
1166.00,-0.1012
1164.00,-0.1011
1162.00,-0.1011
1160.00,-0.1011
1158.00,-0.1011
1156.00,-0.1011
1154.00,-0.1011
1152.00,-0.1011
1150.00,-0.1011
1148.00,-0.1012
1146.00,-0.1012
1144.00,-0.1012
1142.00,-0.1012
1140.00,-0.1011
1138.00,-0.1011
1136.00,-0.1011
1134.00,-0.1010
1132.00,-0.1010
1130.00,-0.1009
1128.00,-0.1009
1126.00,-0.1009
1124.00,-0.1009
1122.00,-0.1009
1120.00,-0.1009
1118.00,-0.1009
1116.00,-0.1008
1114.00,-0.1007
1112.00,-0.1007
1110.00,-0.1006
1108.00,-0.1005
1106.00,-0.1004
1104.00,-0.1004
1102.00,-0.1003
1100.00,-0.1003
1098.00,-0.1002
1096.00,-0.1002
1094.00,-0.1002
1092.00,-0.1003
1090.00,-0.1003
1088.00,-0.1003
1086.00,-0.1004
1084.00,-0.1004
1082.00,-0.1003
1080.00,-0.1002
1078.00,-0.1001
1076.00,-0.0999
1074.00,-0.0997
1072.00,-0.0995
1070.00,-0.0991
1068.00,-0.0987
1066.00,-0.0984
1064.00,-0.0981
1062.00,-0.0979
1060.00,-0.0978
1058.00,-0.0978
1056.00,-0.0979
1054.00,-0.0979
1052.00,-0.0980
1050.00,-0.0981
1048.00,-0.0984
1046.00,-0.0987
1044.00,-0.0990
1042.00,-0.0993
1040.00,-0.0996
1038.00,-0.0999
1036.00,-0.1001
1034.00,-0.1003
1032.00,-0.1004
1030.00,-0.1006
1028.00,-0.1008
1026.00,-0.1009
1024.00,-0.1010
1022.00,-0.1011
1020.00,-0.1012
1018.00,-0.1013
1016.00,-0.1013
1014.00,-0.1013
1012.00,-0.1014
1010.00,-0.1014
1008.00,-0.1014
1006.00,-0.1014
1004.00,-0.1014
1002.00,-0.1015
1000.00,-0.1016
998.00,-0.1016
996.00,-0.1017
994.00,-0.1018
992.00,-0.1018
990.00,-0.1019
988.00,-0.1020
986.00,-0.1020
984.00,-0.1021
982.00,-0.1021
980.00,-0.1021
978.00,-0.1021
976.00,-0.1021
974.00,-0.1021
972.00,-0.1021
970.00,-0.1021
968.00,-0.1022
966.00,-0.1023
964.00,-0.1024
962.00,-0.1024
960.00,-0.1024
958.00,-0.1025
956.00,-0.1025
954.00,-0.1025
952.00,-0.1024
950.00,-0.1024
948.00,-0.1024
946.00,-0.1023
944.00,-0.1023
942.00,-0.1023
940.00,-0.1024
938.00,-0.1024
936.00,-0.1024
934.00,-0.1024
932.00,-0.1024
930.00,-0.1025
928.00,-0.1025
926.00,-0.1025
924.00,-0.1026
922.00,-0.1026
920.00,-0.1026
918.00,-0.1025
916.00,-0.1025
914.00,-0.1025
912.00,-0.1025
910.00,-0.1025
908.00,-0.1026
906.00,-0.1027
904.00,-0.1027
902.00,-0.1028
900.00,-0.1028
898.00,-0.1029
896.00,-0.1029
894.00,-0.1029
892.00,-0.1029
890.00,-0.1029
888.00,-0.1029
886.00,-0.1029
884.00,-0.1028
882.00,-0.1028
880.00,-0.1028
878.00,-0.1028
876.00,-0.1028
874.00,-0.1028
872.00,-0.1028
870.00,-0.1029
868.00,-0.1029
866.00,-0.1029
864.00,-0.1029
862.00,-0.1029
860.00,-0.1029
858.00,-0.1028
856.00,-0.1028
854.00,-0.1027
852.00,-0.1027
850.00,-0.1027
848.00,-0.1027
846.00,-0.1027
844.00,-0.1027
842.00,-0.1028
840.00,-0.1028
838.00,-0.1028
836.00,-0.1029
834.00,-0.1029
832.00,-0.1029
830.00,-0.1028
828.00,-0.1028
826.00,-0.1027
824.00,-0.1027
822.00,-0.1027
820.00,-0.1027
818.00,-0.1027
816.00,-0.1026
814.00,-0.1026
812.00,-0.1027
810.00,-0.1027
808.00,-0.1027
806.00,-0.1028
804.00,-0.1028
802.00,-0.1028
800.00,-0.1028
798.00,-0.1028
796.00,-0.1028
794.00,-0.1027
792.00,-0.1027
790.00,-0.1027
788.00,-0.1027
786.00,-0.1027
784.00,-0.1028
782.00,-0.1028
780.00,-0.1028
778.00,-0.1028
776.00,-0.1029
774.00,-0.1029
772.00,-0.1029
770.00,-0.1030
768.00,-0.1029
766.00,-0.1029
764.00,-0.1029
762.00,-0.1028
760.00,-0.1028
758.00,-0.1028
756.00,-0.1028
754.00,-0.1028
752.00,-0.1028
750.00,-0.1028
748.00,-0.1029
746.00,-0.1029
744.00,-0.1029
742.00,-0.1029
740.00,-0.1029
738.00,-0.1029
736.00,-0.1029
734.00,-0.1028
732.00,-0.1028
730.00,-0.1027
728.00,-0.1027
726.00,-0.1027
724.00,-0.1027
722.00,-0.1028
720.00,-0.1028
718.00,-0.1028
716.00,-0.1028
714.00,-0.1028
712.00,-0.1028
710.00,-0.1028
708.00,-0.1029
706.00,-0.1029
704.00,-0.1029
702.00,-0.1029
700.00,-0.1028
698.00,-0.1028
696.00,-0.1028
694.00,-0.1028
692.00,-0.1027
690.00,-0.1028
688.00,-0.1028
686.00,-0.1028
684.00,-0.1028
682.00,-0.1029
680.00,-0.1029
678.00,-0.1029
676.00,-0.1029
674.00,-0.1028
672.00,-0.1028
670.00,-0.1031
668.00,-0.1028
666.00,-0.1019
664.00,-0.1024
662.00,-0.1026
660.00,-0.1026
658.00,-0.1025
656.00,-0.1026
654.00,-0.1026
652.00,-0.1026
650.00,-0.1026
648.00,-0.1025
646.00,-0.1024
644.00,-0.1023
642.00,-0.1023
640.00,-0.1022
638.00,-0.1020
636.00,-0.1019
634.00,-0.1019
632.00,-0.1019
630.00,-0.1018
628.00,-0.1018
626.00,-0.1018
624.00,-0.1018
622.00,-0.1018
620.00,-0.1019
618.00,-0.1019
616.00,-0.1019
614.00,-0.1019
612.00,-0.1018
610.00,-0.1017
608.00,-0.1017
606.00,-0.1016
604.00,-0.1016
602.00,-0.1018
600.00,-0.1018
598.00,-0.1018
596.00,-0.1018
594.00,-0.1019
592.00,-0.1019
590.00,-0.1019
588.00,-0.1019
586.00,-0.1018
584.00,-0.1019
582.00,-0.1019
580.00,-0.1019
578.00,-0.1017
576.00,-0.1017
574.00,-0.1016
572.00,-0.1015
570.00,-0.1015
568.00,-0.1015
566.00,-0.1014
564.00,-0.1014
562.00,-0.1015
560.00,-0.1015
558.00,-0.1014
556.00,-0.1016
554.00,-0.1016
552.00,-0.1015
550.00,-0.1015
548.00,-0.1016
546.00,-0.1016
544.00,-0.1016
542.00,-0.1016
540.00,-0.1016
538.00,-0.1017
536.00,-0.1018
534.00,-0.1018
532.00,-0.1018
530.00,-0.1020
528.00,-0.1022
526.00,-0.1023
524.00,-0.1023
522.00,-0.1024
520.00,-0.1024
518.00,-0.1025
516.00,-0.1024
514.00,-0.1024
512.00,-0.1025
510.00,-0.1026
508.00,-0.1026
506.00,-0.1026
504.00,-0.1028
502.00,-0.1029
500.00,-0.1030
