Created as New Dataset,Sample 032 By Analyst Date Wednesday, April 02 2025
cm-1,A
4000.00,-0.0171
3998.00,-0.0171
3996.00,-0.0172
3994.00,-0.0172
3992.00,-0.0172
3990.00,-0.0172
3988.00,-0.0172
3986.00,-0.0172
3984.00,-0.0171
3982.00,-0.0171
3980.00,-0.0171
3978.00,-0.0171
3976.00,-0.0170
3974.00,-0.0171
3972.00,-0.0171
3970.00,-0.0171
3968.00,-0.0171
3966.00,-0.0171
3964.00,-0.0171
3962.00,-0.0172
3960.00,-0.0172
3958.00,-0.0172
3956.00,-0.0172
3954.00,-0.0172
3952.00,-0.0171
3950.00,-0.0171
3948.00,-0.0170
3946.00,-0.0170
3944.00,-0.0170
3942.00,-0.0171
3940.00,-0.0171
3938.00,-0.0171
3936.00,-0.0171
3934.00,-0.0171
3932.00,-0.0171
3930.00,-0.0171
3928.00,-0.0171
3926.00,-0.0171
3924.00,-0.0171
3922.00,-0.0171
3920.00,-0.0170
3918.00,-0.0169
3916.00,-0.0170
3914.00,-0.0170
3912.00,-0.0170
3910.00,-0.0170
3908.00,-0.0170
3906.00,-0.0169
3904.00,-0.0169
3902.00,-0.0169
3900.00,-0.0168
3898.00,-0.0170
3896.00,-0.0171
3894.00,-0.0171
3892.00,-0.0171
3890.00,-0.0171
3888.00,-0.0169
3886.00,-0.0168
3884.00,-0.0169
3882.00,-0.0168
3880.00,-0.0169
3878.00,-0.0170
3876.00,-0.0168
3874.00,-0.0170
3872.00,-0.0170
3870.00,-0.0168
3868.00,-0.0170
3866.00,-0.0169
3864.00,-0.0170
3862.00,-0.0171
3860.00,-0.0170
3858.00,-0.0171
3856.00,-0.0172
3854.00,-0.0169
3852.00,-0.0169
3850.00,-0.0167
3848.00,-0.0169
3846.00,-0.0170
3844.00,-0.0169
3842.00,-0.0169
3840.00,-0.0169
3838.00,-0.0169
3836.00,-0.0169
3834.00,-0.0170
3832.00,-0.0170
3830.00,-0.0170
3828.00,-0.0170
3826.00,-0.0170
3824.00,-0.0170
3822.00,-0.0167
3820.00,-0.0169
3818.00,-0.0168
3816.00,-0.0167
3814.00,-0.0170
3812.00,-0.0169
3810.00,-0.0170
3808.00,-0.0170
3806.00,-0.0169
3804.00,-0.0169
3802.00,-0.0168
3800.00,-0.0170
3798.00,-0.0169
3796.00,-0.0169
3794.00,-0.0170
3792.00,-0.0169
3790.00,-0.0170
3788.00,-0.0170
3786.00,-0.0169
3784.00,-0.0169
3782.00,-0.0169
3780.00,-0.0169
3778.00,-0.0171
3776.00,-0.0171
3774.00,-0.0171
3772.00,-0.0171
3770.00,-0.0170
3768.00,-0.0170
3766.00,-0.0169
3764.00,-0.0170
3762.00,-0.0169
3760.00,-0.0168
3758.00,-0.0168
3756.00,-0.0168
3754.00,-0.0168
3752.00,-0.0167
3750.00,-0.0166
3748.00,-0.0167
3746.00,-0.0167
3744.00,-0.0168
3742.00,-0.0169
3740.00,-0.0167
3738.00,-0.0167
3736.00,-0.0166
3734.00,-0.0167
3732.00,-0.0166
3730.00,-0.0167
3728.00,-0.0167
3726.00,-0.0167
3724.00,-0.0167
3722.00,-0.0167
3720.00,-0.0168
3718.00,-0.0168
3716.00,-0.0169
3714.00,-0.0168
3712.00,-0.0168
3710.00,-0.0169
3708.00,-0.0169
3706.00,-0.0170
3704.00,-0.0170
3702.00,-0.0170
3700.00,-0.0170
3698.00,-0.0169
3696.00,-0.0169
3694.00,-0.0169
3692.00,-0.0169
3690.00,-0.0169
3688.00,-0.0168
3686.00,-0.0169
3684.00,-0.0169
3682.00,-0.0170
3680.00,-0.0170
3678.00,-0.0170
3676.00,-0.0168
3674.00,-0.0169
3672.00,-0.0168
3670.00,-0.0168
3668.00,-0.0170
3666.00,-0.0169
3664.00,-0.0170
3662.00,-0.0170
3660.00,-0.0170
3658.00,-0.0169
3656.00,-0.0169
3654.00,-0.0169
3652.00,-0.0167
3650.00,-0.0167
3648.00,-0.0168
3646.00,-0.0169
3644.00,-0.0170
3642.00,-0.0170
3640.00,-0.0171
3638.00,-0.0170
3636.00,-0.0169
3634.00,-0.0168
3632.00,-0.0168
3630.00,-0.0166
3628.00,-0.0167
3626.00,-0.0167
3624.00,-0.0168
3622.00,-0.0169
3620.00,-0.0169
3618.00,-0.0169
3616.00,-0.0168
3614.00,-0.0168
3612.00,-0.0169
3610.00,-0.0167
3608.00,-0.0167
3606.00,-0.0168
3604.00,-0.0168
3602.00,-0.0168
3600.00,-0.0168
3598.00,-0.0168
3596.00,-0.0168
3594.00,-0.0168
3592.00,-0.0168
3590.00,-0.0167
3588.00,-0.0168
3586.00,-0.0169
3584.00,-0.0169
3582.00,-0.0170
3580.00,-0.0170
3578.00,-0.0170
3576.00,-0.0169
3574.00,-0.0169
3572.00,-0.0168
3570.00,-0.0167
3568.00,-0.0166
3566.00,-0.0167
3564.00,-0.0168
3562.00,-0.0168
3560.00,-0.0170
3558.00,-0.0170
3556.00,-0.0170
3554.00,-0.0170
3552.00,-0.0170
3550.00,-0.0169
3548.00,-0.0169
3546.00,-0.0169
3544.00,-0.0169
3542.00,-0.0169
3540.00,-0.0168
3538.00,-0.0168
3536.00,-0.0168
3534.00,-0.0168
3532.00,-0.0168
3530.00,-0.0168
3528.00,-0.0168
3526.00,-0.0168
3524.00,-0.0169
3522.00,-0.0169
3520.00,-0.0169
3518.00,-0.0169
3516.00,-0.0169
3514.00,-0.0168
3512.00,-0.0168
3510.00,-0.0167
3508.00,-0.0167
3506.00,-0.0166
3504.00,-0.0166
3502.00,-0.0166
3500.00,-0.0166
3498.00,-0.0167
3496.00,-0.0167
3494.00,-0.0167
3492.00,-0.0167
3490.00,-0.0167
3488.00,-0.0167
3486.00,-0.0166
3484.00,-0.0165
3482.00,-0.0165
3480.00,-0.0164
3478.00,-0.0163
3476.00,-0.0163
3474.00,-0.0162
3472.00,-0.0162
3470.00,-0.0163
3468.00,-0.0163
3466.00,-0.0163
3464.00,-0.0163
3462.00,-0.0163
3460.00,-0.0163
3458.00,-0.0163
3456.00,-0.0163
3454.00,-0.0163
3452.00,-0.0163
3450.00,-0.0162
3448.00,-0.0162
3446.00,-0.0162
3444.00,-0.0163
3442.00,-0.0163
3440.00,-0.0164
3438.00,-0.0165
3436.00,-0.0166
3434.00,-0.0166
3432.00,-0.0167
3430.00,-0.0168
3428.00,-0.0168
3426.00,-0.0169
3424.00,-0.0169
3422.00,-0.0169
3420.00,-0.0169
3418.00,-0.0169
3416.00,-0.0169
3414.00,-0.0169
3412.00,-0.0169
3410.00,-0.0169
3408.00,-0.0169
3406.00,-0.0170
3404.00,-0.0170
3402.00,-0.0170
3400.00,-0.0171
3398.00,-0.0171
3396.00,-0.0171
3394.00,-0.0171
3392.00,-0.0171
3390.00,-0.0171
3388.00,-0.0170
3386.00,-0.0170
3384.00,-0.0170
3382.00,-0.0170
3380.00,-0.0169
3378.00,-0.0170
3376.00,-0.0170
3374.00,-0.0170
3372.00,-0.0171
3370.00,-0.0171
3368.00,-0.0171
3366.00,-0.0171
3364.00,-0.0171
3362.00,-0.0171
3360.00,-0.0171
3358.00,-0.0171
3356.00,-0.0170
3354.00,-0.0170
3352.00,-0.0170
3350.00,-0.0169
3348.00,-0.0169
3346.00,-0.0170
3344.00,-0.0170
3342.00,-0.0170
3340.00,-0.0171
3338.00,-0.0171
3336.00,-0.0171
3334.00,-0.0171
3332.00,-0.0171
3330.00,-0.0171
3328.00,-0.0171
3326.00,-0.0171
3324.00,-0.0170
3322.00,-0.0170
3320.00,-0.0170
3318.00,-0.0170
3316.00,-0.0170
3314.00,-0.0170
3312.00,-0.0170
3310.00,-0.0171
3308.00,-0.0171
3306.00,-0.0172
3304.00,-0.0172
3302.00,-0.0172
3300.00,-0.0172
3298.00,-0.0172
3296.00,-0.0171
3294.00,-0.0171
3292.00,-0.0170
3290.00,-0.0170
3288.00,-0.0170
3286.00,-0.0170
3284.00,-0.0170
3282.00,-0.0170
3280.00,-0.0170
3278.00,-0.0171
3276.00,-0.0171
3274.00,-0.0171
3272.00,-0.0172
3270.00,-0.0172
3268.00,-0.0171
3266.00,-0.0171
3264.00,-0.0171
3262.00,-0.0170
3260.00,-0.0170
3258.00,-0.0170
3256.00,-0.0169
3254.00,-0.0170
3252.00,-0.0170
3250.00,-0.0170
3248.00,-0.0170
3246.00,-0.0171
3244.00,-0.0171
3242.00,-0.0171
3240.00,-0.0171
3238.00,-0.0171
3236.00,-0.0171
3234.00,-0.0171
3232.00,-0.0171
3230.00,-0.0170
3228.00,-0.0170
3226.00,-0.0170
3224.00,-0.0170
3222.00,-0.0170
3220.00,-0.0170
3218.00,-0.0170
3216.00,-0.0171
3214.00,-0.0171
3212.00,-0.0171
3210.00,-0.0172
3208.00,-0.0172
3206.00,-0.0172
3204.00,-0.0172
3202.00,-0.0171
3200.00,-0.0171
3198.00,-0.0170
3196.00,-0.0170
3194.00,-0.0170
3192.00,-0.0170
3190.00,-0.0170
3188.00,-0.0170
3186.00,-0.0170
3184.00,-0.0171
3182.00,-0.0171
3180.00,-0.0171
3178.00,-0.0171
3176.00,-0.0171
3174.00,-0.0171
3172.00,-0.0171
3170.00,-0.0170
3168.00,-0.0170
3166.00,-0.0170
3164.00,-0.0169
3162.00,-0.0169
3160.00,-0.0169
3158.00,-0.0169
3156.00,-0.0170
3154.00,-0.0170
3152.00,-0.0170
3150.00,-0.0171
3148.00,-0.0171
3146.00,-0.0171
3144.00,-0.0171
3142.00,-0.0171
3140.00,-0.0170
3138.00,-0.0170
3136.00,-0.0170
3134.00,-0.0169
3132.00,-0.0169
3130.00,-0.0169
3128.00,-0.0168
3126.00,-0.0168
3124.00,-0.0168
3122.00,-0.0169
3120.00,-0.0169
3118.00,-0.0169
3116.00,-0.0169
3114.00,-0.0168
3112.00,-0.0168
3110.00,-0.0167
3108.00,-0.0167
3106.00,-0.0166
3104.00,-0.0165
3102.00,-0.0164
3100.00,-0.0164
3098.00,-0.0163
3096.00,-0.0163
3094.00,-0.0163
3092.00,-0.0162
3090.00,-0.0162
3088.00,-0.0162
3086.00,-0.0162
3084.00,-0.0162
3082.00,-0.0161
3080.00,-0.0161
3078.00,-0.0161
3076.00,-0.0160
3074.00,-0.0159
3072.00,-0.0159
3070.00,-0.0158
3068.00,-0.0158
3066.00,-0.0158
3064.00,-0.0158
3062.00,-0.0158
3060.00,-0.0158
3058.00,-0.0159
3056.00,-0.0159
3054.00,-0.0159
3052.00,-0.0159
3050.00,-0.0158
3048.00,-0.0157
3046.00,-0.0156
3044.00,-0.0155
3042.00,-0.0153
3040.00,-0.0150
3038.00,-0.0147
3036.00,-0.0144
3034.00,-0.0142
3032.00,-0.0139
3030.00,-0.0138
3028.00,-0.0137
3026.00,-0.0137
3024.00,-0.0137
3022.00,-0.0138
3020.00,-0.0137
3018.00,-0.0136
3016.00,-0.0135
3014.00,-0.0135
3012.00,-0.0136
3010.00,-0.0136
3008.00,-0.0135
3006.00,-0.0135
3004.00,-0.0135
3002.00,-0.0136
3000.00,-0.0137
2998.00,-0.0138
2996.00,-0.0140
2994.00,-0.0141
2992.00,-0.0142
2990.00,-0.0143
2988.00,-0.0144
2986.00,-0.0145
2984.00,-0.0146
2982.00,-0.0147
2980.00,-0.0147
2978.00,-0.0146
2976.00,-0.0143
2974.00,-0.0133
2972.00,-0.0120
2970.00,-0.0116
2968.00,-0.0127
2966.00,-0.0139
2964.00,-0.0145
2962.00,-0.0147
2960.00,-0.0147
2958.00,-0.0146
2956.00,-0.0145
2954.00,-0.0144
2952.00,-0.0142
2950.00,-0.0141
2948.00,-0.0140
2946.00,-0.0140
2944.00,-0.0140
2942.00,-0.0141
2940.00,-0.0142
2938.00,-0.0143
2936.00,-0.0145
2934.00,-0.0147
2932.00,-0.0147
2930.00,-0.0148
2928.00,-0.0148
2926.00,-0.0149
2924.00,-0.0150
2922.00,-0.0150
2920.00,-0.0151
2918.00,-0.0152
2916.00,-0.0153
2914.00,-0.0155
2912.00,-0.0156
2910.00,-0.0157
2908.00,-0.0159
2906.00,-0.0160
2904.00,-0.0162
2902.00,-0.0163
2900.00,-0.0164
2898.00,-0.0165
2896.00,-0.0165
2894.00,-0.0166
2892.00,-0.0166
2890.00,-0.0166
2888.00,-0.0166
2886.00,-0.0165
2884.00,-0.0165
2882.00,-0.0165
2880.00,-0.0165
2878.00,-0.0165
2876.00,-0.0165
2874.00,-0.0165
2872.00,-0.0165
2870.00,-0.0166
2868.00,-0.0166
2866.00,-0.0166
2864.00,-0.0166
2862.00,-0.0166
2860.00,-0.0166
2858.00,-0.0166
2856.00,-0.0166
2854.00,-0.0165
2852.00,-0.0165
2850.00,-0.0165
2848.00,-0.0165
2846.00,-0.0166
2844.00,-0.0166
2842.00,-0.0167
2840.00,-0.0167
2838.00,-0.0168
2836.00,-0.0168
2834.00,-0.0169
2832.00,-0.0169
2830.00,-0.0170
2828.00,-0.0170
2826.00,-0.0170
2824.00,-0.0169
2822.00,-0.0169
2820.00,-0.0169
2818.00,-0.0169
2816.00,-0.0169
2814.00,-0.0169
2812.00,-0.0169
2810.00,-0.0169
2808.00,-0.0170
2806.00,-0.0170
2804.00,-0.0170
2802.00,-0.0170
2800.00,-0.0170
2798.00,-0.0170
2796.00,-0.0170
2794.00,-0.0170
2792.00,-0.0169
2790.00,-0.0169
2788.00,-0.0169
2786.00,-0.0169
2784.00,-0.0169
2782.00,-0.0169
2780.00,-0.0169
2778.00,-0.0170
2776.00,-0.0170
2774.00,-0.0171
2772.00,-0.0171
2770.00,-0.0171
2768.00,-0.0171
2766.00,-0.0171
2764.00,-0.0171
2762.00,-0.0171
2760.00,-0.0170
2758.00,-0.0170
2756.00,-0.0170
2754.00,-0.0170
2752.00,-0.0170
2750.00,-0.0170
2748.00,-0.0170
2746.00,-0.0171
2744.00,-0.0171
2742.00,-0.0171
2740.00,-0.0172
2738.00,-0.0172
2736.00,-0.0172
2734.00,-0.0171
2732.00,-0.0171
2730.00,-0.0171
2728.00,-0.0170
2726.00,-0.0170
2724.00,-0.0170
2722.00,-0.0169
2720.00,-0.0170
2718.00,-0.0170
2716.00,-0.0170
2714.00,-0.0170
2712.00,-0.0171
2710.00,-0.0171
2708.00,-0.0171
2706.00,-0.0171
2704.00,-0.0171
2702.00,-0.0171
2700.00,-0.0171
2698.00,-0.0170
2696.00,-0.0170
2694.00,-0.0170
2692.00,-0.0170
2690.00,-0.0170
2688.00,-0.0170
2686.00,-0.0170
2684.00,-0.0171
2682.00,-0.0171
2680.00,-0.0172
2678.00,-0.0172
2676.00,-0.0172
2674.00,-0.0172
2672.00,-0.0172
2670.00,-0.0171
2668.00,-0.0171
2666.00,-0.0171
2664.00,-0.0170
2662.00,-0.0170
2660.00,-0.0170
2658.00,-0.0170
2656.00,-0.0170
2654.00,-0.0171
2652.00,-0.0171
2650.00,-0.0171
2648.00,-0.0172
2646.00,-0.0172
2644.00,-0.0172
2642.00,-0.0172
2640.00,-0.0172
2638.00,-0.0171
2636.00,-0.0171
2634.00,-0.0170
2632.00,-0.0170
2630.00,-0.0170
2628.00,-0.0170
2626.00,-0.0170
2624.00,-0.0170
2622.00,-0.0171
2620.00,-0.0171
2618.00,-0.0171
2616.00,-0.0172
2614.00,-0.0172
2612.00,-0.0172
2610.00,-0.0172
2608.00,-0.0171
2606.00,-0.0171
2604.00,-0.0171
2602.00,-0.0170
2600.00,-0.0170
2598.00,-0.0170
2596.00,-0.0170
2594.00,-0.0170
2592.00,-0.0170
2590.00,-0.0170
2588.00,-0.0170
2586.00,-0.0170
2584.00,-0.0171
2582.00,-0.0171
2580.00,-0.0171
2578.00,-0.0171
2576.00,-0.0170
2574.00,-0.0170
2572.00,-0.0169
2570.00,-0.0169
2568.00,-0.0169
2566.00,-0.0169
2564.00,-0.0169
2562.00,-0.0169
2560.00,-0.0170
2558.00,-0.0170
2556.00,-0.0171
2554.00,-0.0171
2552.00,-0.0171
2550.00,-0.0171
2548.00,-0.0171
2546.00,-0.0171
2544.00,-0.0171
2542.00,-0.0170
2540.00,-0.0170
2538.00,-0.0170
2536.00,-0.0170
2534.00,-0.0170
2532.00,-0.0170
2530.00,-0.0170
2528.00,-0.0170
2526.00,-0.0171
2524.00,-0.0171
2522.00,-0.0171
2520.00,-0.0172
2518.00,-0.0172
2516.00,-0.0171
2514.00,-0.0171
2512.00,-0.0171
2510.00,-0.0170
2508.00,-0.0170
2506.00,-0.0170
2504.00,-0.0170
2502.00,-0.0170
2500.00,-0.0170
2498.00,-0.0170
2496.00,-0.0171
2494.00,-0.0171
2492.00,-0.0171
2490.00,-0.0171
2488.00,-0.0172
2486.00,-0.0172
2484.00,-0.0171
2482.00,-0.0171
2480.00,-0.0171
2478.00,-0.0170
2476.00,-0.0170
2474.00,-0.0170
2472.00,-0.0170
2470.00,-0.0170
2468.00,-0.0170
2466.00,-0.0170
2464.00,-0.0171
2462.00,-0.0171
2460.00,-0.0171
2458.00,-0.0171
2456.00,-0.0171
2454.00,-0.0171
2452.00,-0.0171
2450.00,-0.0170
2448.00,-0.0170
2446.00,-0.0169
2444.00,-0.0169
2442.00,-0.0169
2440.00,-0.0169
2438.00,-0.0169
2436.00,-0.0169
2434.00,-0.0170
2432.00,-0.0170
2430.00,-0.0171
2428.00,-0.0171
2426.00,-0.0171
2424.00,-0.0171
2422.00,-0.0171
2420.00,-0.0171
2418.00,-0.0171
2416.00,-0.0170
2414.00,-0.0170
2412.00,-0.0170
2410.00,-0.0170
2408.00,-0.0170
2406.00,-0.0170
2404.00,-0.0170
2402.00,-0.0171
2400.00,-0.0171
2398.00,-0.0171
2396.00,-0.0172
2394.00,-0.0172
2392.00,-0.0172
2390.00,-0.0172
2388.00,-0.0172
2386.00,-0.0171
2384.00,-0.0171
2382.00,-0.0171
2380.00,-0.0171
2378.00,-0.0171
2376.00,-0.0171
2374.00,-0.0171
2372.00,-0.0171
2370.00,-0.0171
2368.00,-0.0170
2366.00,-0.0171
2364.00,-0.0171
2362.00,-0.0171
2360.00,-0.0171
2358.00,-0.0171
2356.00,-0.0171
2354.00,-0.0171
2352.00,-0.0171
2350.00,-0.0171
2348.00,-0.0171
2346.00,-0.0171
2344.00,-0.0170
2342.00,-0.0170
2340.00,-0.0170
2338.00,-0.0170
2336.00,-0.0171
2334.00,-0.0171
2332.00,-0.0171
2330.00,-0.0171
2328.00,-0.0171
2326.00,-0.0171
2324.00,-0.0171
2322.00,-0.0170
2320.00,-0.0170
2318.00,-0.0170
2316.00,-0.0170
2314.00,-0.0170
2312.00,-0.0170
2310.00,-0.0170
2308.00,-0.0170
2306.00,-0.0170
2304.00,-0.0171
2302.00,-0.0171
2300.00,-0.0171
2298.00,-0.0171
2296.00,-0.0171
2294.00,-0.0171
2292.00,-0.0170
2290.00,-0.0170
2288.00,-0.0170
2286.00,-0.0170
2284.00,-0.0170
2282.00,-0.0170
2280.00,-0.0170
2278.00,-0.0170
2276.00,-0.0170
2274.00,-0.0171
2272.00,-0.0171
2270.00,-0.0171
2268.00,-0.0171
2266.00,-0.0171
2264.00,-0.0170
2262.00,-0.0170
2260.00,-0.0169
2258.00,-0.0169
2256.00,-0.0169
2254.00,-0.0169
2252.00,-0.0169
2250.00,-0.0169
2248.00,-0.0169
2246.00,-0.0169
2244.00,-0.0170
2242.00,-0.0170
2240.00,-0.0170
2238.00,-0.0171
2236.00,-0.0171
2234.00,-0.0170
2232.00,-0.0170
2230.00,-0.0170
2228.00,-0.0170
2226.00,-0.0169
2224.00,-0.0169
2222.00,-0.0169
2220.00,-0.0169
2218.00,-0.0170
2216.00,-0.0170
2214.00,-0.0170
2212.00,-0.0171
2210.00,-0.0171
2208.00,-0.0171
2206.00,-0.0171
2204.00,-0.0171
2202.00,-0.0171
2200.00,-0.0171
2198.00,-0.0170
2196.00,-0.0170
2194.00,-0.0170
2192.00,-0.0170
2190.00,-0.0169
2188.00,-0.0169
2186.00,-0.0170
2184.00,-0.0170
2182.00,-0.0170
2180.00,-0.0170
2178.00,-0.0171
2176.00,-0.0171
2174.00,-0.0171
2172.00,-0.0171
2170.00,-0.0170
2168.00,-0.0170
2166.00,-0.0169
2164.00,-0.0169
2162.00,-0.0168
2160.00,-0.0168
2158.00,-0.0168
2156.00,-0.0168
2154.00,-0.0168
2152.00,-0.0168
2150.00,-0.0168
2148.00,-0.0168
2146.00,-0.0168
2144.00,-0.0168
2142.00,-0.0168
2140.00,-0.0168
2138.00,-0.0168
2136.00,-0.0167
2134.00,-0.0167
2132.00,-0.0167
2130.00,-0.0166
2128.00,-0.0166
2126.00,-0.0166
2124.00,-0.0166
2122.00,-0.0167
2120.00,-0.0167
2118.00,-0.0168
2116.00,-0.0168
2114.00,-0.0169
2112.00,-0.0169
2110.00,-0.0169
2108.00,-0.0169
2106.00,-0.0169
2104.00,-0.0168
2102.00,-0.0168
2100.00,-0.0168
2098.00,-0.0168
2096.00,-0.0168
2094.00,-0.0168
2092.00,-0.0168
2090.00,-0.0169
2088.00,-0.0170
2086.00,-0.0170
2084.00,-0.0170
2082.00,-0.0171
2080.00,-0.0171
2078.00,-0.0171
2076.00,-0.0171
2074.00,-0.0170
2072.00,-0.0170
2070.00,-0.0170
2068.00,-0.0170
2066.00,-0.0170
2064.00,-0.0169
2062.00,-0.0169
2060.00,-0.0170
2058.00,-0.0170
2056.00,-0.0171
2054.00,-0.0171
2052.00,-0.0171
2050.00,-0.0171
2048.00,-0.0171
2046.00,-0.0171
2044.00,-0.0171
2042.00,-0.0171
2040.00,-0.0170
2038.00,-0.0170
2036.00,-0.0170
2034.00,-0.0170
2032.00,-0.0170
2030.00,-0.0170
2028.00,-0.0170
2026.00,-0.0171
2024.00,-0.0171
2022.00,-0.0172
2020.00,-0.0172
2018.00,-0.0172
2016.00,-0.0172
2014.00,-0.0171
2012.00,-0.0171
2010.00,-0.0170
2008.00,-0.0170
2006.00,-0.0170
2004.00,-0.0169
2002.00,-0.0169
2000.00,-0.0169
1998.00,-0.0170
1996.00,-0.0170
1994.00,-0.0170
1992.00,-0.0171
1990.00,-0.0171
1988.00,-0.0171
1986.00,-0.0171
1984.00,-0.0171
1982.00,-0.0171
1980.00,-0.0171
1978.00,-0.0171
1976.00,-0.0170
1974.00,-0.0170
1972.00,-0.0170
1970.00,-0.0170
1968.00,-0.0170
1966.00,-0.0170
1964.00,-0.0171
1962.00,-0.0171
1960.00,-0.0172
1958.00,-0.0171
1956.00,-0.0172
1954.00,-0.0172
1952.00,-0.0172
1950.00,-0.0172
1948.00,-0.0171
1946.00,-0.0171
1944.00,-0.0171
1942.00,-0.0171
1940.00,-0.0170
1938.00,-0.0170
1936.00,-0.0171
1934.00,-0.0171
1932.00,-0.0171
1930.00,-0.0171
1928.00,-0.0172
1926.00,-0.0172
1924.00,-0.0172
1922.00,-0.0172
1920.00,-0.0171
1918.00,-0.0171
1916.00,-0.0171
1914.00,-0.0170
1912.00,-0.0170
1910.00,-0.0170
1908.00,-0.0170
1906.00,-0.0170
1904.00,-0.0170
1902.00,-0.0170
1900.00,-0.0171
1898.00,-0.0171
1896.00,-0.0171
1894.00,-0.0171
1892.00,-0.0171
1890.00,-0.0171
1888.00,-0.0171
1886.00,-0.0171
1884.00,-0.0170
1882.00,-0.0170
1880.00,-0.0170
1878.00,-0.0170
1876.00,-0.0170
1874.00,-0.0170
1872.00,-0.0170
1870.00,-0.0170
1868.00,-0.0171
1866.00,-0.0171
1864.00,-0.0171
1862.00,-0.0171
1860.00,-0.0171
1858.00,-0.0171
1856.00,-0.0170
1854.00,-0.0170
1852.00,-0.0170
1850.00,-0.0169
1848.00,-0.0169
1846.00,-0.0169
1844.00,-0.0169
1842.00,-0.0168
1840.00,-0.0169
1838.00,-0.0169
1836.00,-0.0169
1834.00,-0.0169
1832.00,-0.0169
1830.00,-0.0169
1828.00,-0.0168
1826.00,-0.0168
1824.00,-0.0167
1822.00,-0.0166
1820.00,-0.0165
1818.00,-0.0164
1816.00,-0.0163
1814.00,-0.0162
1812.00,-0.0161
1810.00,-0.0160
1808.00,-0.0159
1806.00,-0.0158
1804.00,-0.0156
1802.00,-0.0155
1800.00,-0.0152
1798.00,-0.0150
1796.00,-0.0147
1794.00,-0.0139
1792.00,-0.0125
1790.00,-0.0126
1788.00,-0.0133
1786.00,-0.0128
1784.00,-0.0125
1782.00,-0.0123
1780.00,-0.0119
1778.00,-0.0114
1776.00,-0.0106
1774.00,-0.0096
1772.00,-0.0085
1770.00,-0.0074
1768.00,-0.0061
1766.00,-0.0045
1764.00,-0.0028
1762.00,-0.0009
1760.00,0.0008
1758.00,0.0024
1756.00,0.0043
1754.00,0.0064
1752.00,0.0081
1750.00,0.0095
1748.00,0.0107
1746.00,0.0121
1744.00,0.0133
1742.00,0.0144
1740.00,0.0153
1738.00,0.0155
1736.00,0.0144
1734.00,0.0113
1732.00,0.0089
1730.00,0.0084
1728.00,0.0082
1726.00,0.0077
1724.00,0.0066
1722.00,0.0054
1720.00,0.0041
1718.00,0.0023
1716.00,0.0000
1714.00,-0.0022
1712.00,-0.0043
1710.00,-0.0064
1708.00,-0.0083
1706.00,-0.0101
1704.00,-0.0116
1702.00,-0.0125
1700.00,-0.0135
1698.00,-0.0142
1696.00,-0.0148
1694.00,-0.0152
1692.00,-0.0154
1690.00,-0.0157
1688.00,-0.0158
1686.00,-0.0160
1684.00,-0.0162
1682.00,-0.0163
1680.00,-0.0164
1678.00,-0.0165
1676.00,-0.0165
1674.00,-0.0166
1672.00,-0.0166
1670.00,-0.0167
1668.00,-0.0168
1666.00,-0.0168
1664.00,-0.0168
1662.00,-0.0168
1660.00,-0.0167
1658.00,-0.0167
1656.00,-0.0167
1654.00,-0.0169
1652.00,-0.0170
1650.00,-0.0169
1648.00,-0.0169
1646.00,-0.0170
1644.00,-0.0170
1642.00,-0.0170
1640.00,-0.0170
1638.00,-0.0170
1636.00,-0.0170
1634.00,-0.0170
1632.00,-0.0170
1630.00,-0.0169
1628.00,-0.0169
1626.00,-0.0169
1624.00,-0.0169
1622.00,-0.0169
1620.00,-0.0170
1618.00,-0.0169
1616.00,-0.0170
1614.00,-0.0170
1612.00,-0.0170
1610.00,-0.0170
1608.00,-0.0170
1606.00,-0.0169
1604.00,-0.0169
1602.00,-0.0168
1600.00,-0.0168
1598.00,-0.0168
1596.00,-0.0168
1594.00,-0.0167
1592.00,-0.0167
1590.00,-0.0167
1588.00,-0.0167
1586.00,-0.0167
1584.00,-0.0168
1582.00,-0.0167
1580.00,-0.0167
1578.00,-0.0167
1576.00,-0.0166
1574.00,-0.0166
1572.00,-0.0165
1570.00,-0.0165
1568.00,-0.0164
1566.00,-0.0163
1564.00,-0.0163
1562.00,-0.0163
1560.00,-0.0163
1558.00,-0.0163
1556.00,-0.0163
1554.00,-0.0163
1552.00,-0.0163
1550.00,-0.0163
1548.00,-0.0162
1546.00,-0.0162
1544.00,-0.0163
1542.00,-0.0163
1540.00,-0.0162
1538.00,-0.0162
1536.00,-0.0162
1534.00,-0.0161
1532.00,-0.0161
1530.00,-0.0161
1528.00,-0.0161
1526.00,-0.0161
1524.00,-0.0161
1522.00,-0.0162
1520.00,-0.0162
1518.00,-0.0163
1516.00,-0.0162
1514.00,-0.0161
1512.00,-0.0161
1510.00,-0.0160
1508.00,-0.0160
1506.00,-0.0160
1504.00,-0.0160
1502.00,-0.0160
1500.00,-0.0160
1498.00,-0.0159
1496.00,-0.0159
1494.00,-0.0159
1492.00,-0.0158
1490.00,-0.0158
1488.00,-0.0158
1486.00,-0.0158
1484.00,-0.0157
1482.00,-0.0156
1480.00,-0.0154
1478.00,-0.0151
1476.00,-0.0149
1474.00,-0.0147
1472.00,-0.0146
1470.00,-0.0146
1468.00,-0.0145
1466.00,-0.0143
1464.00,-0.0141
1462.00,-0.0140
1460.00,-0.0138
1458.00,-0.0135
1456.00,-0.0129
1454.00,-0.0128
1452.00,-0.0128
1450.00,-0.0126
1448.00,-0.0124
1446.00,-0.0123
1444.00,-0.0123
1442.00,-0.0121
1440.00,-0.0121
1438.00,-0.0121
1436.00,-0.0120
1434.00,-0.0121
1432.00,-0.0124
1430.00,-0.0125
1428.00,-0.0125
1426.00,-0.0125
1424.00,-0.0125
1422.00,-0.0126
1420.00,-0.0128
1418.00,-0.0130
1416.00,-0.0131
1414.00,-0.0133
1412.00,-0.0135
1410.00,-0.0136
1408.00,-0.0137
1406.00,-0.0138
1404.00,-0.0138
1402.00,-0.0138
1400.00,-0.0138
1398.00,-0.0136
1396.00,-0.0134
1394.00,-0.0129
1392.00,-0.0122
1390.00,-0.0113
1388.00,-0.0099
1386.00,-0.0081
1384.00,-0.0062
1382.00,-0.0041
1380.00,-0.0023
1378.00,-0.0009
1376.00,0.0000
1374.00,0.0007
1372.00,0.0012
1370.00,0.0014
1368.00,0.0019
1366.00,0.0028
1364.00,0.0017
1362.00,-0.0002
1360.00,-0.0014
1358.00,-0.0021
1356.00,-0.0021
1354.00,-0.0021
1352.00,-0.0027
1350.00,-0.0038
1348.00,-0.0052
1346.00,-0.0068
1344.00,-0.0083
1342.00,-0.0098
1340.00,-0.0111
1338.00,-0.0123
1336.00,-0.0132
1334.00,-0.0140
1332.00,-0.0146
1330.00,-0.0150
1328.00,-0.0154
1326.00,-0.0156
1324.00,-0.0158
1322.00,-0.0160
1320.00,-0.0161
1318.00,-0.0162
1316.00,-0.0163
1314.00,-0.0164
1312.00,-0.0165
1310.00,-0.0166
1308.00,-0.0166
1306.00,-0.0167
1304.00,-0.0168
1302.00,-0.0168
1300.00,-0.0169
1298.00,-0.0169
1296.00,-0.0169
1294.00,-0.0169
1292.00,-0.0169
1290.00,-0.0169
1288.00,-0.0169
1286.00,-0.0169
1284.00,-0.0169
1282.00,-0.0169
1280.00,-0.0169
1278.00,-0.0169
1276.00,-0.0169
1274.00,-0.0170
1272.00,-0.0170
1270.00,-0.0170
1268.00,-0.0170
1266.00,-0.0169
1264.00,-0.0169
1262.00,-0.0169
1260.00,-0.0168
1258.00,-0.0168
1256.00,-0.0167
1254.00,-0.0167
1252.00,-0.0165
1250.00,-0.0164
1248.00,-0.0161
1246.00,-0.0156
1244.00,-0.0147
1242.00,-0.0134
1240.00,-0.0115
1238.00,-0.0090
1236.00,-0.0061
1234.00,-0.0031
1232.00,-0.0007
1230.00,0.0007
1228.00,0.0009
1226.00,-0.0003
1224.00,-0.0022
1222.00,-0.0032
1220.00,-0.0003
1218.00,0.0040
1216.00,0.0039
1214.00,0.0007
1212.00,-0.0013
1210.00,-0.0016
1208.00,-0.0011
1206.00,-0.0009
1204.00,-0.0014
1202.00,-0.0025
1200.00,-0.0042
1198.00,-0.0062
1196.00,-0.0082
1194.00,-0.0100
1192.00,-0.0116
1190.00,-0.0129
1188.00,-0.0140
1186.00,-0.0148
1184.00,-0.0154
1182.00,-0.0158
1180.00,-0.0161
1178.00,-0.0163
1176.00,-0.0165
1174.00,-0.0166
1172.00,-0.0167
1170.00,-0.0168
1168.00,-0.0168
1166.00,-0.0168
1164.00,-0.0168
1162.00,-0.0168
1160.00,-0.0168
1158.00,-0.0168
1156.00,-0.0168
1154.00,-0.0168
1152.00,-0.0168
1150.00,-0.0168
1148.00,-0.0169
1146.00,-0.0169
1144.00,-0.0169
1142.00,-0.0169
1140.00,-0.0169
1138.00,-0.0169
1136.00,-0.0168
1134.00,-0.0168
1132.00,-0.0167
1130.00,-0.0167
1128.00,-0.0166
1126.00,-0.0166
1124.00,-0.0165
1122.00,-0.0165
1120.00,-0.0165
1118.00,-0.0165
1116.00,-0.0164
1114.00,-0.0164
1112.00,-0.0164
1110.00,-0.0164
1108.00,-0.0164
1106.00,-0.0164
1104.00,-0.0164
1102.00,-0.0164
1100.00,-0.0164
1098.00,-0.0163
1096.00,-0.0161
1094.00,-0.0159
1092.00,-0.0158
1090.00,-0.0160
1088.00,-0.0164
1086.00,-0.0165
1084.00,-0.0166
1082.00,-0.0166
1080.00,-0.0167
1078.00,-0.0167
1076.00,-0.0167
1074.00,-0.0167
1072.00,-0.0167
1070.00,-0.0167
1068.00,-0.0167
1066.00,-0.0167
1064.00,-0.0167
1062.00,-0.0167
1060.00,-0.0168
1058.00,-0.0168
1056.00,-0.0168
1054.00,-0.0168
1052.00,-0.0168
1050.00,-0.0168
1048.00,-0.0168
1046.00,-0.0168
1044.00,-0.0169
1042.00,-0.0169
1040.00,-0.0169
1038.00,-0.0169
1036.00,-0.0168
1034.00,-0.0168
1032.00,-0.0168
1030.00,-0.0169
1028.00,-0.0169
1026.00,-0.0169
1024.00,-0.0169
1022.00,-0.0170
1020.00,-0.0170
1018.00,-0.0170
1016.00,-0.0170
1014.00,-0.0170
1012.00,-0.0170
1010.00,-0.0170
1008.00,-0.0170
1006.00,-0.0170
1004.00,-0.0170
1002.00,-0.0170
1000.00,-0.0170
998.00,-0.0170
996.00,-0.0170
994.00,-0.0171
992.00,-0.0171
990.00,-0.0171
988.00,-0.0171
986.00,-0.0171
984.00,-0.0171
982.00,-0.0171
980.00,-0.0171
978.00,-0.0171
976.00,-0.0171
974.00,-0.0171
972.00,-0.0170
970.00,-0.0170
968.00,-0.0171
966.00,-0.0171
964.00,-0.0171
962.00,-0.0171
960.00,-0.0171
958.00,-0.0172
956.00,-0.0172
954.00,-0.0172
952.00,-0.0172
950.00,-0.0172
948.00,-0.0172
946.00,-0.0171
944.00,-0.0171
942.00,-0.0171
940.00,-0.0170
938.00,-0.0170
936.00,-0.0170
934.00,-0.0169
932.00,-0.0169
930.00,-0.0169
928.00,-0.0169
926.00,-0.0168
924.00,-0.0167
922.00,-0.0167
920.00,-0.0166
918.00,-0.0165
916.00,-0.0164
914.00,-0.0163
912.00,-0.0162
910.00,-0.0161
908.00,-0.0160
906.00,-0.0160
904.00,-0.0160
902.00,-0.0159
900.00,-0.0159
898.00,-0.0160
896.00,-0.0160
894.00,-0.0161
892.00,-0.0163
890.00,-0.0162
888.00,-0.0162
886.00,-0.0163
884.00,-0.0164
882.00,-0.0164
880.00,-0.0164
878.00,-0.0164
876.00,-0.0164
874.00,-0.0165
872.00,-0.0166
870.00,-0.0168
868.00,-0.0169
866.00,-0.0170
864.00,-0.0171
862.00,-0.0171
860.00,-0.0171
858.00,-0.0172
856.00,-0.0172
854.00,-0.0172
852.00,-0.0172
850.00,-0.0171
848.00,-0.0171
846.00,-0.0171
844.00,-0.0171
842.00,-0.0172
840.00,-0.0172
838.00,-0.0172
836.00,-0.0172
834.00,-0.0172
832.00,-0.0171
830.00,-0.0171
828.00,-0.0171
826.00,-0.0171
824.00,-0.0170
822.00,-0.0170
820.00,-0.0171
818.00,-0.0170
816.00,-0.0170
814.00,-0.0170
812.00,-0.0170
810.00,-0.0170
808.00,-0.0170
806.00,-0.0170
804.00,-0.0170
802.00,-0.0170
800.00,-0.0170
798.00,-0.0169
796.00,-0.0169
794.00,-0.0169
792.00,-0.0168
790.00,-0.0168
788.00,-0.0168
786.00,-0.0168
784.00,-0.0168
782.00,-0.0168
780.00,-0.0168
778.00,-0.0168
776.00,-0.0168
774.00,-0.0168
772.00,-0.0169
770.00,-0.0169
768.00,-0.0169
766.00,-0.0169
764.00,-0.0169
762.00,-0.0169
760.00,-0.0169
758.00,-0.0169
756.00,-0.0169
754.00,-0.0170
752.00,-0.0170
750.00,-0.0170
748.00,-0.0170
746.00,-0.0170
744.00,-0.0171
742.00,-0.0171
740.00,-0.0171
738.00,-0.0171
736.00,-0.0171
734.00,-0.0171
732.00,-0.0171
730.00,-0.0171
728.00,-0.0171
726.00,-0.0171
724.00,-0.0171
722.00,-0.0171
720.00,-0.0171
718.00,-0.0171
716.00,-0.0171
714.00,-0.0171
712.00,-0.0171
710.00,-0.0171
708.00,-0.0171
706.00,-0.0172
704.00,-0.0172
702.00,-0.0172
700.00,-0.0172
698.00,-0.0171
696.00,-0.0171
694.00,-0.0171
692.00,-0.0171
690.00,-0.0171
688.00,-0.0170
686.00,-0.0171
684.00,-0.0171
682.00,-0.0172
680.00,-0.0172
678.00,-0.0172
676.00,-0.0172
674.00,-0.0172
672.00,-0.0172
670.00,-0.0172
668.00,-0.0170
666.00,-0.0169
664.00,-0.0171
662.00,-0.0171
660.00,-0.0171
658.00,-0.0171
656.00,-0.0171
654.00,-0.0171
652.00,-0.0171
650.00,-0.0171
648.00,-0.0171
646.00,-0.0171
644.00,-0.0171
642.00,-0.0171
640.00,-0.0171
638.00,-0.0171
636.00,-0.0170
634.00,-0.0171
632.00,-0.0171
630.00,-0.0171
628.00,-0.0171
626.00,-0.0171
624.00,-0.0171
622.00,-0.0171
620.00,-0.0171
618.00,-0.0171
616.00,-0.0171
614.00,-0.0171
612.00,-0.0171
610.00,-0.0172
608.00,-0.0172
606.00,-0.0171
604.00,-0.0171
602.00,-0.0171
600.00,-0.0171
598.00,-0.0171
596.00,-0.0172
594.00,-0.0172
592.00,-0.0172
590.00,-0.0171
588.00,-0.0171
586.00,-0.0172
584.00,-0.0172
582.00,-0.0172
580.00,-0.0171
578.00,-0.0171
576.00,-0.0172
574.00,-0.0172
572.00,-0.0172
570.00,-0.0172
568.00,-0.0172
566.00,-0.0172
564.00,-0.0172
562.00,-0.0171
560.00,-0.0171
558.00,-0.0170
556.00,-0.0169
554.00,-0.0167
552.00,-0.0164
550.00,-0.0160
548.00,-0.0155
546.00,-0.0150
544.00,-0.0146
542.00,-0.0143
540.00,-0.0141
538.00,-0.0141
536.00,-0.0144
534.00,-0.0148
532.00,-0.0147
530.00,-0.0137
528.00,-0.0128
526.00,-0.0134
524.00,-0.0144
522.00,-0.0147
520.00,-0.0145
518.00,-0.0142
516.00,-0.0140
514.00,-0.0141
512.00,-0.0145
510.00,-0.0150
508.00,-0.0157
506.00,-0.0164
504.00,-0.0170
502.00,-0.0173
500.00,-0.0176
