Created as New Dataset,Sample 027 By Analyst Date Wednesday, April 02 2025
cm-1,A
4000.00,-0.0168
3998.00,-0.0168
3996.00,-0.0169
3994.00,-0.0169
3992.00,-0.0169
3990.00,-0.0169
3988.00,-0.0169
3986.00,-0.0169
3984.00,-0.0168
3982.00,-0.0168
3980.00,-0.0168
3978.00,-0.0168
3976.00,-0.0167
3974.00,-0.0168
3972.00,-0.0168
3970.00,-0.0168
3968.00,-0.0168
3966.00,-0.0168
3964.00,-0.0169
3962.00,-0.0169
3960.00,-0.0169
3958.00,-0.0169
3956.00,-0.0169
3954.00,-0.0169
3952.00,-0.0168
3950.00,-0.0168
3948.00,-0.0168
3946.00,-0.0168
3944.00,-0.0167
3942.00,-0.0168
3940.00,-0.0168
3938.00,-0.0168
3936.00,-0.0168
3934.00,-0.0168
3932.00,-0.0168
3930.00,-0.0169
3928.00,-0.0169
3926.00,-0.0169
3924.00,-0.0169
3922.00,-0.0169
3920.00,-0.0168
3918.00,-0.0167
3916.00,-0.0167
3914.00,-0.0167
3912.00,-0.0167
3910.00,-0.0167
3908.00,-0.0167
3906.00,-0.0167
3904.00,-0.0167
3902.00,-0.0168
3900.00,-0.0168
3898.00,-0.0169
3896.00,-0.0169
3894.00,-0.0169
3892.00,-0.0169
3890.00,-0.0169
3888.00,-0.0168
3886.00,-0.0167
3884.00,-0.0167
3882.00,-0.0167
3880.00,-0.0167
3878.00,-0.0168
3876.00,-0.0167
3874.00,-0.0167
3872.00,-0.0169
3870.00,-0.0168
3868.00,-0.0169
3866.00,-0.0168
3864.00,-0.0169
3862.00,-0.0169
3860.00,-0.0168
3858.00,-0.0169
3856.00,-0.0170
3854.00,-0.0168
3852.00,-0.0168
3850.00,-0.0167
3848.00,-0.0167
3846.00,-0.0168
3844.00,-0.0167
3842.00,-0.0168
3840.00,-0.0168
3838.00,-0.0168
3836.00,-0.0169
3834.00,-0.0169
3832.00,-0.0169
3830.00,-0.0169
3828.00,-0.0168
3826.00,-0.0167
3824.00,-0.0168
3822.00,-0.0166
3820.00,-0.0167
3818.00,-0.0168
3816.00,-0.0166
3814.00,-0.0168
3812.00,-0.0167
3810.00,-0.0168
3808.00,-0.0168
3806.00,-0.0167
3804.00,-0.0168
3802.00,-0.0167
3800.00,-0.0168
3798.00,-0.0168
3796.00,-0.0168
3794.00,-0.0168
3792.00,-0.0167
3790.00,-0.0167
3788.00,-0.0167
3786.00,-0.0166
3784.00,-0.0167
3782.00,-0.0167
3780.00,-0.0167
3778.00,-0.0168
3776.00,-0.0168
3774.00,-0.0168
3772.00,-0.0168
3770.00,-0.0168
3768.00,-0.0168
3766.00,-0.0168
3764.00,-0.0168
3762.00,-0.0167
3760.00,-0.0167
3758.00,-0.0167
3756.00,-0.0167
3754.00,-0.0167
3752.00,-0.0167
3750.00,-0.0166
3748.00,-0.0167
3746.00,-0.0168
3744.00,-0.0168
3742.00,-0.0169
3740.00,-0.0167
3738.00,-0.0167
3736.00,-0.0166
3734.00,-0.0167
3732.00,-0.0167
3730.00,-0.0167
3728.00,-0.0166
3726.00,-0.0166
3724.00,-0.0166
3722.00,-0.0166
3720.00,-0.0166
3718.00,-0.0166
3716.00,-0.0167
3714.00,-0.0167
3712.00,-0.0167
3710.00,-0.0168
3708.00,-0.0168
3706.00,-0.0168
3704.00,-0.0168
3702.00,-0.0168
3700.00,-0.0168
3698.00,-0.0167
3696.00,-0.0167
3694.00,-0.0167
3692.00,-0.0167
3690.00,-0.0168
3688.00,-0.0167
3686.00,-0.0168
3684.00,-0.0168
3682.00,-0.0168
3680.00,-0.0168
3678.00,-0.0168
3676.00,-0.0167
3674.00,-0.0169
3672.00,-0.0168
3670.00,-0.0167
3668.00,-0.0168
3666.00,-0.0167
3664.00,-0.0167
3662.00,-0.0167
3660.00,-0.0167
3658.00,-0.0167
3656.00,-0.0167
3654.00,-0.0167
3652.00,-0.0167
3650.00,-0.0167
3648.00,-0.0168
3646.00,-0.0168
3644.00,-0.0168
3642.00,-0.0168
3640.00,-0.0168
3638.00,-0.0167
3636.00,-0.0167
3634.00,-0.0166
3632.00,-0.0167
3630.00,-0.0166
3628.00,-0.0166
3626.00,-0.0166
3624.00,-0.0166
3622.00,-0.0167
3620.00,-0.0167
3618.00,-0.0168
3616.00,-0.0167
3614.00,-0.0167
3612.00,-0.0168
3610.00,-0.0167
3608.00,-0.0166
3606.00,-0.0167
3604.00,-0.0166
3602.00,-0.0166
3600.00,-0.0166
3598.00,-0.0166
3596.00,-0.0166
3594.00,-0.0166
3592.00,-0.0167
3590.00,-0.0166
3588.00,-0.0167
3586.00,-0.0168
3584.00,-0.0168
3582.00,-0.0168
3580.00,-0.0168
3578.00,-0.0167
3576.00,-0.0167
3574.00,-0.0166
3572.00,-0.0166
3570.00,-0.0165
3568.00,-0.0165
3566.00,-0.0165
3564.00,-0.0166
3562.00,-0.0167
3560.00,-0.0167
3558.00,-0.0167
3556.00,-0.0168
3554.00,-0.0168
3552.00,-0.0168
3550.00,-0.0167
3548.00,-0.0167
3546.00,-0.0166
3544.00,-0.0166
3542.00,-0.0166
3540.00,-0.0166
3538.00,-0.0166
3536.00,-0.0165
3534.00,-0.0165
3532.00,-0.0165
3530.00,-0.0166
3528.00,-0.0166
3526.00,-0.0166
3524.00,-0.0166
3522.00,-0.0167
3520.00,-0.0167
3518.00,-0.0167
3516.00,-0.0166
3514.00,-0.0166
3512.00,-0.0165
3510.00,-0.0165
3508.00,-0.0164
3506.00,-0.0164
3504.00,-0.0164
3502.00,-0.0164
3500.00,-0.0165
3498.00,-0.0165
3496.00,-0.0165
3494.00,-0.0165
3492.00,-0.0165
3490.00,-0.0165
3488.00,-0.0165
3486.00,-0.0164
3484.00,-0.0164
3482.00,-0.0163
3480.00,-0.0163
3478.00,-0.0162
3476.00,-0.0161
3474.00,-0.0161
3472.00,-0.0161
3470.00,-0.0161
3468.00,-0.0162
3466.00,-0.0162
3464.00,-0.0162
3462.00,-0.0162
3460.00,-0.0162
3458.00,-0.0162
3456.00,-0.0162
3454.00,-0.0162
3452.00,-0.0162
3450.00,-0.0162
3448.00,-0.0161
3446.00,-0.0161
3444.00,-0.0161
3442.00,-0.0162
3440.00,-0.0162
3438.00,-0.0163
3436.00,-0.0164
3434.00,-0.0164
3432.00,-0.0165
3430.00,-0.0166
3428.00,-0.0166
3426.00,-0.0166
3424.00,-0.0166
3422.00,-0.0166
3420.00,-0.0166
3418.00,-0.0166
3416.00,-0.0166
3414.00,-0.0166
3412.00,-0.0166
3410.00,-0.0166
3408.00,-0.0166
3406.00,-0.0167
3404.00,-0.0167
3402.00,-0.0168
3400.00,-0.0168
3398.00,-0.0168
3396.00,-0.0168
3394.00,-0.0168
3392.00,-0.0168
3390.00,-0.0168
3388.00,-0.0167
3386.00,-0.0167
3384.00,-0.0167
3382.00,-0.0167
3380.00,-0.0166
3378.00,-0.0167
3376.00,-0.0167
3374.00,-0.0167
3372.00,-0.0168
3370.00,-0.0168
3368.00,-0.0168
3366.00,-0.0168
3364.00,-0.0168
3362.00,-0.0168
3360.00,-0.0168
3358.00,-0.0168
3356.00,-0.0167
3354.00,-0.0167
3352.00,-0.0167
3350.00,-0.0166
3348.00,-0.0166
3346.00,-0.0167
3344.00,-0.0167
3342.00,-0.0167
3340.00,-0.0168
3338.00,-0.0168
3336.00,-0.0168
3334.00,-0.0168
3332.00,-0.0168
3330.00,-0.0168
3328.00,-0.0168
3326.00,-0.0168
3324.00,-0.0167
3322.00,-0.0167
3320.00,-0.0167
3318.00,-0.0167
3316.00,-0.0167
3314.00,-0.0167
3312.00,-0.0167
3310.00,-0.0168
3308.00,-0.0168
3306.00,-0.0169
3304.00,-0.0169
3302.00,-0.0169
3300.00,-0.0169
3298.00,-0.0169
3296.00,-0.0168
3294.00,-0.0168
3292.00,-0.0168
3290.00,-0.0167
3288.00,-0.0167
3286.00,-0.0167
3284.00,-0.0167
3282.00,-0.0167
3280.00,-0.0167
3278.00,-0.0168
3276.00,-0.0168
3274.00,-0.0168
3272.00,-0.0169
3270.00,-0.0169
3268.00,-0.0168
3266.00,-0.0168
3264.00,-0.0168
3262.00,-0.0167
3260.00,-0.0167
3258.00,-0.0167
3256.00,-0.0166
3254.00,-0.0167
3252.00,-0.0167
3250.00,-0.0167
3248.00,-0.0167
3246.00,-0.0168
3244.00,-0.0168
3242.00,-0.0168
3240.00,-0.0168
3238.00,-0.0168
3236.00,-0.0168
3234.00,-0.0168
3232.00,-0.0168
3230.00,-0.0167
3228.00,-0.0167
3226.00,-0.0167
3224.00,-0.0167
3222.00,-0.0167
3220.00,-0.0167
3218.00,-0.0167
3216.00,-0.0168
3214.00,-0.0168
3212.00,-0.0168
3210.00,-0.0169
3208.00,-0.0169
3206.00,-0.0169
3204.00,-0.0169
3202.00,-0.0168
3200.00,-0.0168
3198.00,-0.0168
3196.00,-0.0167
3194.00,-0.0167
3192.00,-0.0167
3190.00,-0.0167
3188.00,-0.0167
3186.00,-0.0167
3184.00,-0.0168
3182.00,-0.0168
3180.00,-0.0168
3178.00,-0.0168
3176.00,-0.0168
3174.00,-0.0168
3172.00,-0.0168
3170.00,-0.0168
3168.00,-0.0167
3166.00,-0.0167
3164.00,-0.0167
3162.00,-0.0166
3160.00,-0.0166
3158.00,-0.0166
3156.00,-0.0167
3154.00,-0.0167
3152.00,-0.0168
3150.00,-0.0168
3148.00,-0.0168
3146.00,-0.0168
3144.00,-0.0168
3142.00,-0.0168
3140.00,-0.0168
3138.00,-0.0167
3136.00,-0.0167
3134.00,-0.0167
3132.00,-0.0166
3130.00,-0.0166
3128.00,-0.0166
3126.00,-0.0166
3124.00,-0.0166
3122.00,-0.0166
3120.00,-0.0166
3118.00,-0.0167
3116.00,-0.0167
3114.00,-0.0167
3112.00,-0.0166
3110.00,-0.0166
3108.00,-0.0165
3106.00,-0.0164
3104.00,-0.0164
3102.00,-0.0163
3100.00,-0.0163
3098.00,-0.0162
3096.00,-0.0162
3094.00,-0.0162
3092.00,-0.0162
3090.00,-0.0162
3088.00,-0.0162
3086.00,-0.0162
3084.00,-0.0161
3082.00,-0.0161
3080.00,-0.0161
3078.00,-0.0161
3076.00,-0.0160
3074.00,-0.0159
3072.00,-0.0159
3070.00,-0.0159
3068.00,-0.0158
3066.00,-0.0158
3064.00,-0.0158
3062.00,-0.0158
3060.00,-0.0159
3058.00,-0.0159
3056.00,-0.0159
3054.00,-0.0159
3052.00,-0.0159
3050.00,-0.0159
3048.00,-0.0158
3046.00,-0.0157
3044.00,-0.0156
3042.00,-0.0155
3040.00,-0.0153
3038.00,-0.0150
3036.00,-0.0148
3034.00,-0.0146
3032.00,-0.0144
3030.00,-0.0143
3028.00,-0.0142
3026.00,-0.0143
3024.00,-0.0143
3022.00,-0.0143
3020.00,-0.0143
3018.00,-0.0142
3016.00,-0.0141
3014.00,-0.0141
3012.00,-0.0142
3010.00,-0.0142
3008.00,-0.0141
3006.00,-0.0141
3004.00,-0.0141
3002.00,-0.0141
3000.00,-0.0142
2998.00,-0.0143
2996.00,-0.0145
2994.00,-0.0146
2992.00,-0.0147
2990.00,-0.0148
2988.00,-0.0148
2986.00,-0.0149
2984.00,-0.0150
2982.00,-0.0150
2980.00,-0.0150
2978.00,-0.0149
2976.00,-0.0146
2974.00,-0.0139
2972.00,-0.0129
2970.00,-0.0126
2968.00,-0.0135
2966.00,-0.0144
2964.00,-0.0149
2962.00,-0.0150
2960.00,-0.0150
2958.00,-0.0150
2956.00,-0.0149
2954.00,-0.0148
2952.00,-0.0147
2950.00,-0.0146
2948.00,-0.0145
2946.00,-0.0145
2944.00,-0.0145
2942.00,-0.0145
2940.00,-0.0146
2938.00,-0.0147
2936.00,-0.0149
2934.00,-0.0150
2932.00,-0.0150
2930.00,-0.0151
2928.00,-0.0151
2926.00,-0.0152
2924.00,-0.0152
2922.00,-0.0153
2920.00,-0.0153
2918.00,-0.0154
2916.00,-0.0155
2914.00,-0.0156
2912.00,-0.0157
2910.00,-0.0158
2908.00,-0.0159
2906.00,-0.0160
2904.00,-0.0161
2902.00,-0.0162
2900.00,-0.0163
2898.00,-0.0164
2896.00,-0.0164
2894.00,-0.0164
2892.00,-0.0164
2890.00,-0.0164
2888.00,-0.0164
2886.00,-0.0164
2884.00,-0.0164
2882.00,-0.0163
2880.00,-0.0163
2878.00,-0.0163
2876.00,-0.0163
2874.00,-0.0164
2872.00,-0.0164
2870.00,-0.0164
2868.00,-0.0164
2866.00,-0.0164
2864.00,-0.0165
2862.00,-0.0165
2860.00,-0.0164
2858.00,-0.0164
2856.00,-0.0164
2854.00,-0.0164
2852.00,-0.0164
2850.00,-0.0163
2848.00,-0.0164
2846.00,-0.0164
2844.00,-0.0164
2842.00,-0.0165
2840.00,-0.0165
2838.00,-0.0166
2836.00,-0.0167
2834.00,-0.0167
2832.00,-0.0167
2830.00,-0.0168
2828.00,-0.0167
2826.00,-0.0167
2824.00,-0.0167
2822.00,-0.0167
2820.00,-0.0166
2818.00,-0.0166
2816.00,-0.0166
2814.00,-0.0166
2812.00,-0.0166
2810.00,-0.0167
2808.00,-0.0167
2806.00,-0.0167
2804.00,-0.0168
2802.00,-0.0168
2800.00,-0.0168
2798.00,-0.0168
2796.00,-0.0168
2794.00,-0.0167
2792.00,-0.0167
2790.00,-0.0167
2788.00,-0.0166
2786.00,-0.0166
2784.00,-0.0166
2782.00,-0.0166
2780.00,-0.0167
2778.00,-0.0167
2776.00,-0.0168
2774.00,-0.0168
2772.00,-0.0168
2770.00,-0.0169
2768.00,-0.0169
2766.00,-0.0168
2764.00,-0.0168
2762.00,-0.0168
2760.00,-0.0168
2758.00,-0.0167
2756.00,-0.0167
2754.00,-0.0167
2752.00,-0.0167
2750.00,-0.0167
2748.00,-0.0168
2746.00,-0.0168
2744.00,-0.0168
2742.00,-0.0169
2740.00,-0.0169
2738.00,-0.0169
2736.00,-0.0169
2734.00,-0.0169
2732.00,-0.0168
2730.00,-0.0168
2728.00,-0.0167
2726.00,-0.0167
2724.00,-0.0167
2722.00,-0.0167
2720.00,-0.0167
2718.00,-0.0167
2716.00,-0.0167
2714.00,-0.0168
2712.00,-0.0168
2710.00,-0.0168
2708.00,-0.0168
2706.00,-0.0168
2704.00,-0.0168
2702.00,-0.0168
2700.00,-0.0168
2698.00,-0.0167
2696.00,-0.0167
2694.00,-0.0167
2692.00,-0.0167
2690.00,-0.0167
2688.00,-0.0167
2686.00,-0.0167
2684.00,-0.0168
2682.00,-0.0168
2680.00,-0.0169
2678.00,-0.0169
2676.00,-0.0169
2674.00,-0.0169
2672.00,-0.0169
2670.00,-0.0169
2668.00,-0.0168
2666.00,-0.0168
2664.00,-0.0167
2662.00,-0.0167
2660.00,-0.0167
2658.00,-0.0167
2656.00,-0.0167
2654.00,-0.0168
2652.00,-0.0168
2650.00,-0.0168
2648.00,-0.0169
2646.00,-0.0169
2644.00,-0.0169
2642.00,-0.0169
2640.00,-0.0169
2638.00,-0.0168
2636.00,-0.0168
2634.00,-0.0167
2632.00,-0.0167
2630.00,-0.0167
2628.00,-0.0167
2626.00,-0.0167
2624.00,-0.0167
2622.00,-0.0168
2620.00,-0.0168
2618.00,-0.0168
2616.00,-0.0169
2614.00,-0.0169
2612.00,-0.0169
2610.00,-0.0169
2608.00,-0.0168
2606.00,-0.0168
2604.00,-0.0168
2602.00,-0.0167
2600.00,-0.0167
2598.00,-0.0167
2596.00,-0.0167
2594.00,-0.0167
2592.00,-0.0167
2590.00,-0.0167
2588.00,-0.0167
2586.00,-0.0168
2584.00,-0.0168
2582.00,-0.0168
2580.00,-0.0168
2578.00,-0.0168
2576.00,-0.0168
2574.00,-0.0167
2572.00,-0.0167
2570.00,-0.0166
2568.00,-0.0166
2566.00,-0.0166
2564.00,-0.0166
2562.00,-0.0167
2560.00,-0.0167
2558.00,-0.0167
2556.00,-0.0168
2554.00,-0.0168
2552.00,-0.0169
2550.00,-0.0169
2548.00,-0.0169
2546.00,-0.0168
2544.00,-0.0168
2542.00,-0.0167
2540.00,-0.0167
2538.00,-0.0167
2536.00,-0.0167
2534.00,-0.0167
2532.00,-0.0167
2530.00,-0.0167
2528.00,-0.0167
2526.00,-0.0168
2524.00,-0.0168
2522.00,-0.0168
2520.00,-0.0169
2518.00,-0.0169
2516.00,-0.0168
2514.00,-0.0168
2512.00,-0.0168
2510.00,-0.0167
2508.00,-0.0167
2506.00,-0.0167
2504.00,-0.0167
2502.00,-0.0167
2500.00,-0.0167
2498.00,-0.0167
2496.00,-0.0168
2494.00,-0.0168
2492.00,-0.0168
2490.00,-0.0169
2488.00,-0.0169
2486.00,-0.0169
2484.00,-0.0168
2482.00,-0.0168
2480.00,-0.0168
2478.00,-0.0167
2476.00,-0.0167
2474.00,-0.0167
2472.00,-0.0167
2470.00,-0.0167
2468.00,-0.0167
2466.00,-0.0167
2464.00,-0.0168
2462.00,-0.0168
2460.00,-0.0168
2458.00,-0.0168
2456.00,-0.0168
2454.00,-0.0168
2452.00,-0.0168
2450.00,-0.0167
2448.00,-0.0167
2446.00,-0.0166
2444.00,-0.0166
2442.00,-0.0166
2440.00,-0.0166
2438.00,-0.0166
2436.00,-0.0166
2434.00,-0.0167
2432.00,-0.0167
2430.00,-0.0168
2428.00,-0.0168
2426.00,-0.0168
2424.00,-0.0168
2422.00,-0.0168
2420.00,-0.0168
2418.00,-0.0167
2416.00,-0.0167
2414.00,-0.0167
2412.00,-0.0167
2410.00,-0.0167
2408.00,-0.0167
2406.00,-0.0167
2404.00,-0.0167
2402.00,-0.0168
2400.00,-0.0168
2398.00,-0.0169
2396.00,-0.0169
2394.00,-0.0169
2392.00,-0.0169
2390.00,-0.0169
2388.00,-0.0168
2386.00,-0.0168
2384.00,-0.0167
2382.00,-0.0167
2380.00,-0.0167
2378.00,-0.0167
2376.00,-0.0168
2374.00,-0.0168
2372.00,-0.0168
2370.00,-0.0167
2368.00,-0.0167
2366.00,-0.0167
2364.00,-0.0167
2362.00,-0.0168
2360.00,-0.0167
2358.00,-0.0167
2356.00,-0.0166
2354.00,-0.0166
2352.00,-0.0165
2350.00,-0.0166
2348.00,-0.0167
2346.00,-0.0167
2344.00,-0.0168
2342.00,-0.0167
2340.00,-0.0167
2338.00,-0.0166
2336.00,-0.0166
2334.00,-0.0167
2332.00,-0.0166
2330.00,-0.0167
2328.00,-0.0167
2326.00,-0.0166
2324.00,-0.0166
2322.00,-0.0166
2320.00,-0.0166
2318.00,-0.0166
2316.00,-0.0166
2314.00,-0.0166
2312.00,-0.0167
2310.00,-0.0168
2308.00,-0.0168
2306.00,-0.0169
2304.00,-0.0169
2302.00,-0.0169
2300.00,-0.0169
2298.00,-0.0169
2296.00,-0.0169
2294.00,-0.0168
2292.00,-0.0168
2290.00,-0.0168
2288.00,-0.0167
2286.00,-0.0167
2284.00,-0.0167
2282.00,-0.0167
2280.00,-0.0167
2278.00,-0.0167
2276.00,-0.0167
2274.00,-0.0168
2272.00,-0.0168
2270.00,-0.0168
2268.00,-0.0168
2266.00,-0.0168
2264.00,-0.0167
2262.00,-0.0167
2260.00,-0.0167
2258.00,-0.0166
2256.00,-0.0166
2254.00,-0.0166
2252.00,-0.0166
2250.00,-0.0166
2248.00,-0.0166
2246.00,-0.0167
2244.00,-0.0167
2242.00,-0.0167
2240.00,-0.0168
2238.00,-0.0168
2236.00,-0.0168
2234.00,-0.0168
2232.00,-0.0167
2230.00,-0.0167
2228.00,-0.0167
2226.00,-0.0166
2224.00,-0.0166
2222.00,-0.0166
2220.00,-0.0166
2218.00,-0.0167
2216.00,-0.0167
2214.00,-0.0167
2212.00,-0.0168
2210.00,-0.0168
2208.00,-0.0168
2206.00,-0.0168
2204.00,-0.0168
2202.00,-0.0168
2200.00,-0.0168
2198.00,-0.0167
2196.00,-0.0167
2194.00,-0.0167
2192.00,-0.0166
2190.00,-0.0166
2188.00,-0.0166
2186.00,-0.0166
2184.00,-0.0167
2182.00,-0.0167
2180.00,-0.0167
2178.00,-0.0167
2176.00,-0.0168
2174.00,-0.0168
2172.00,-0.0168
2170.00,-0.0167
2168.00,-0.0167
2166.00,-0.0166
2164.00,-0.0166
2162.00,-0.0165
2160.00,-0.0165
2158.00,-0.0165
2156.00,-0.0165
2154.00,-0.0165
2152.00,-0.0165
2150.00,-0.0166
2148.00,-0.0166
2146.00,-0.0166
2144.00,-0.0166
2142.00,-0.0166
2140.00,-0.0166
2138.00,-0.0165
2136.00,-0.0165
2134.00,-0.0164
2132.00,-0.0164
2130.00,-0.0164
2128.00,-0.0164
2126.00,-0.0164
2124.00,-0.0164
2122.00,-0.0164
2120.00,-0.0165
2118.00,-0.0165
2116.00,-0.0166
2114.00,-0.0166
2112.00,-0.0166
2110.00,-0.0166
2108.00,-0.0166
2106.00,-0.0166
2104.00,-0.0166
2102.00,-0.0165
2100.00,-0.0165
2098.00,-0.0165
2096.00,-0.0165
2094.00,-0.0165
2092.00,-0.0165
2090.00,-0.0166
2088.00,-0.0167
2086.00,-0.0167
2084.00,-0.0167
2082.00,-0.0168
2080.00,-0.0168
2078.00,-0.0168
2076.00,-0.0167
2074.00,-0.0167
2072.00,-0.0167
2070.00,-0.0167
2068.00,-0.0167
2066.00,-0.0167
2064.00,-0.0166
2062.00,-0.0166
2060.00,-0.0167
2058.00,-0.0167
2056.00,-0.0167
2054.00,-0.0168
2052.00,-0.0168
2050.00,-0.0168
2048.00,-0.0168
2046.00,-0.0168
2044.00,-0.0168
2042.00,-0.0167
2040.00,-0.0167
2038.00,-0.0167
2036.00,-0.0167
2034.00,-0.0167
2032.00,-0.0167
2030.00,-0.0167
2028.00,-0.0167
2026.00,-0.0168
2024.00,-0.0168
2022.00,-0.0168
2020.00,-0.0168
2018.00,-0.0168
2016.00,-0.0168
2014.00,-0.0168
2012.00,-0.0167
2010.00,-0.0167
2008.00,-0.0167
2006.00,-0.0166
2004.00,-0.0166
2002.00,-0.0166
2000.00,-0.0166
1998.00,-0.0166
1996.00,-0.0167
1994.00,-0.0167
1992.00,-0.0168
1990.00,-0.0168
1988.00,-0.0168
1986.00,-0.0168
1984.00,-0.0168
1982.00,-0.0168
1980.00,-0.0168
1978.00,-0.0167
1976.00,-0.0167
1974.00,-0.0167
1972.00,-0.0167
1970.00,-0.0167
1968.00,-0.0167
1966.00,-0.0167
1964.00,-0.0167
1962.00,-0.0168
1960.00,-0.0168
1958.00,-0.0168
1956.00,-0.0168
1954.00,-0.0169
1952.00,-0.0169
1950.00,-0.0169
1948.00,-0.0168
1946.00,-0.0168
1944.00,-0.0168
1942.00,-0.0167
1940.00,-0.0167
1938.00,-0.0167
1936.00,-0.0167
1934.00,-0.0168
1932.00,-0.0168
1930.00,-0.0168
1928.00,-0.0168
1926.00,-0.0168
1924.00,-0.0168
1922.00,-0.0168
1920.00,-0.0168
1918.00,-0.0168
1916.00,-0.0167
1914.00,-0.0167
1912.00,-0.0167
1910.00,-0.0167
1908.00,-0.0167
1906.00,-0.0167
1904.00,-0.0167
1902.00,-0.0167
1900.00,-0.0167
1898.00,-0.0168
1896.00,-0.0168
1894.00,-0.0168
1892.00,-0.0168
1890.00,-0.0168
1888.00,-0.0168
1886.00,-0.0167
1884.00,-0.0167
1882.00,-0.0167
1880.00,-0.0167
1878.00,-0.0167
1876.00,-0.0166
1874.00,-0.0167
1872.00,-0.0167
1870.00,-0.0167
1868.00,-0.0168
1866.00,-0.0168
1864.00,-0.0168
1862.00,-0.0168
1860.00,-0.0168
1858.00,-0.0168
1856.00,-0.0168
1854.00,-0.0167
1852.00,-0.0167
1850.00,-0.0166
1848.00,-0.0166
1846.00,-0.0166
1844.00,-0.0166
1842.00,-0.0166
1840.00,-0.0166
1838.00,-0.0166
1836.00,-0.0166
1834.00,-0.0166
1832.00,-0.0166
1830.00,-0.0166
1828.00,-0.0166
1826.00,-0.0166
1824.00,-0.0165
1822.00,-0.0164
1820.00,-0.0163
1818.00,-0.0163
1816.00,-0.0162
1814.00,-0.0161
1812.00,-0.0160
1810.00,-0.0159
1808.00,-0.0159
1806.00,-0.0158
1804.00,-0.0157
1802.00,-0.0156
1800.00,-0.0154
1798.00,-0.0152
1796.00,-0.0150
1794.00,-0.0142
1792.00,-0.0128
1790.00,-0.0132
1788.00,-0.0139
1786.00,-0.0136
1784.00,-0.0134
1782.00,-0.0132
1780.00,-0.0129
1778.00,-0.0125
1776.00,-0.0119
1774.00,-0.0111
1772.00,-0.0103
1770.00,-0.0095
1768.00,-0.0086
1766.00,-0.0073
1764.00,-0.0060
1762.00,-0.0045
1760.00,-0.0033
1758.00,-0.0021
1756.00,-0.0006
1754.00,0.0009
1752.00,0.0022
1750.00,0.0033
1748.00,0.0042
1746.00,0.0052
1744.00,0.0062
1742.00,0.0070
1740.00,0.0077
1738.00,0.0078
1736.00,0.0069
1734.00,0.0046
1732.00,0.0028
1730.00,0.0024
1728.00,0.0023
1726.00,0.0019
1724.00,0.0012
1722.00,0.0002
1720.00,-0.0008
1718.00,-0.0022
1716.00,-0.0038
1714.00,-0.0055
1712.00,-0.0072
1710.00,-0.0087
1708.00,-0.0102
1706.00,-0.0115
1704.00,-0.0126
1702.00,-0.0134
1700.00,-0.0141
1698.00,-0.0146
1696.00,-0.0151
1694.00,-0.0154
1692.00,-0.0156
1690.00,-0.0157
1688.00,-0.0158
1686.00,-0.0160
1684.00,-0.0161
1682.00,-0.0162
1680.00,-0.0163
1678.00,-0.0163
1676.00,-0.0164
1674.00,-0.0164
1672.00,-0.0165
1670.00,-0.0165
1668.00,-0.0165
1666.00,-0.0165
1664.00,-0.0165
1662.00,-0.0165
1660.00,-0.0165
1658.00,-0.0165
1656.00,-0.0165
1654.00,-0.0166
1652.00,-0.0167
1650.00,-0.0166
1648.00,-0.0166
1646.00,-0.0167
1644.00,-0.0167
1642.00,-0.0167
1640.00,-0.0167
1638.00,-0.0167
1636.00,-0.0167
1634.00,-0.0167
1632.00,-0.0167
1630.00,-0.0166
1628.00,-0.0166
1626.00,-0.0166
1624.00,-0.0166
1622.00,-0.0166
1620.00,-0.0167
1618.00,-0.0167
1616.00,-0.0167
1614.00,-0.0167
1612.00,-0.0167
1610.00,-0.0167
1608.00,-0.0167
1606.00,-0.0167
1604.00,-0.0166
1602.00,-0.0166
1600.00,-0.0166
1598.00,-0.0165
1596.00,-0.0165
1594.00,-0.0165
1592.00,-0.0165
1590.00,-0.0165
1588.00,-0.0165
1586.00,-0.0165
1584.00,-0.0165
1582.00,-0.0165
1580.00,-0.0165
1578.00,-0.0165
1576.00,-0.0165
1574.00,-0.0164
1572.00,-0.0164
1570.00,-0.0163
1568.00,-0.0162
1566.00,-0.0162
1564.00,-0.0162
1562.00,-0.0162
1560.00,-0.0162
1558.00,-0.0161
1556.00,-0.0162
1554.00,-0.0162
1552.00,-0.0162
1550.00,-0.0162
1548.00,-0.0162
1546.00,-0.0162
1544.00,-0.0162
1542.00,-0.0162
1540.00,-0.0161
1538.00,-0.0161
1536.00,-0.0161
1534.00,-0.0161
1532.00,-0.0161
1530.00,-0.0160
1528.00,-0.0161
1526.00,-0.0161
1524.00,-0.0161
1522.00,-0.0161
1520.00,-0.0162
1518.00,-0.0162
1516.00,-0.0162
1514.00,-0.0161
1512.00,-0.0161
1510.00,-0.0160
1508.00,-0.0160
1506.00,-0.0160
1504.00,-0.0160
1502.00,-0.0160
1500.00,-0.0159
1498.00,-0.0159
1496.00,-0.0159
1494.00,-0.0158
1492.00,-0.0158
1490.00,-0.0158
1488.00,-0.0159
1486.00,-0.0158
1484.00,-0.0158
1482.00,-0.0157
1480.00,-0.0155
1478.00,-0.0153
1476.00,-0.0152
1474.00,-0.0150
1472.00,-0.0149
1470.00,-0.0149
1468.00,-0.0148
1466.00,-0.0147
1464.00,-0.0145
1462.00,-0.0144
1460.00,-0.0143
1458.00,-0.0141
1456.00,-0.0137
1454.00,-0.0136
1452.00,-0.0136
1450.00,-0.0134
1448.00,-0.0132
1446.00,-0.0132
1444.00,-0.0131
1442.00,-0.0130
1440.00,-0.0130
1438.00,-0.0130
1436.00,-0.0129
1434.00,-0.0130
1432.00,-0.0132
1430.00,-0.0133
1428.00,-0.0133
1426.00,-0.0133
1424.00,-0.0134
1422.00,-0.0135
1420.00,-0.0136
1418.00,-0.0137
1416.00,-0.0138
1414.00,-0.0139
1412.00,-0.0140
1410.00,-0.0141
1408.00,-0.0142
1406.00,-0.0143
1404.00,-0.0143
1402.00,-0.0143
1400.00,-0.0143
1398.00,-0.0142
1396.00,-0.0140
1394.00,-0.0137
1392.00,-0.0131
1390.00,-0.0124
1388.00,-0.0114
1386.00,-0.0100
1384.00,-0.0086
1382.00,-0.0070
1380.00,-0.0056
1378.00,-0.0046
1376.00,-0.0038
1374.00,-0.0033
1372.00,-0.0030
1370.00,-0.0028
1368.00,-0.0025
1366.00,-0.0018
1364.00,-0.0026
1362.00,-0.0040
1360.00,-0.0050
1358.00,-0.0055
1356.00,-0.0054
1354.00,-0.0054
1352.00,-0.0059
1350.00,-0.0067
1348.00,-0.0078
1346.00,-0.0090
1344.00,-0.0101
1342.00,-0.0113
1340.00,-0.0123
1338.00,-0.0132
1336.00,-0.0139
1334.00,-0.0145
1332.00,-0.0149
1330.00,-0.0152
1328.00,-0.0155
1326.00,-0.0157
1324.00,-0.0158
1322.00,-0.0160
1320.00,-0.0160
1318.00,-0.0161
1316.00,-0.0162
1314.00,-0.0162
1312.00,-0.0163
1310.00,-0.0164
1308.00,-0.0164
1306.00,-0.0165
1304.00,-0.0165
1302.00,-0.0166
1300.00,-0.0166
1298.00,-0.0167
1296.00,-0.0167
1294.00,-0.0167
1292.00,-0.0166
1290.00,-0.0166
1288.00,-0.0166
1286.00,-0.0166
1284.00,-0.0166
1282.00,-0.0166
1280.00,-0.0166
1278.00,-0.0166
1276.00,-0.0166
1274.00,-0.0166
1272.00,-0.0167
1270.00,-0.0167
1268.00,-0.0167
1266.00,-0.0167
1264.00,-0.0166
1262.00,-0.0166
1260.00,-0.0165
1258.00,-0.0165
1256.00,-0.0164
1254.00,-0.0164
1252.00,-0.0163
1250.00,-0.0162
1248.00,-0.0159
1246.00,-0.0156
1244.00,-0.0150
1242.00,-0.0140
1240.00,-0.0125
1238.00,-0.0107
1236.00,-0.0085
1234.00,-0.0062
1232.00,-0.0044
1230.00,-0.0033
1228.00,-0.0032
1226.00,-0.0040
1224.00,-0.0055
1222.00,-0.0062
1220.00,-0.0040
1218.00,-0.0007
1216.00,-0.0009
1214.00,-0.0033
1212.00,-0.0048
1210.00,-0.0050
1208.00,-0.0047
1206.00,-0.0045
1204.00,-0.0049
1202.00,-0.0057
1200.00,-0.0070
1198.00,-0.0085
1196.00,-0.0100
1194.00,-0.0114
1192.00,-0.0125
1190.00,-0.0136
1188.00,-0.0144
1186.00,-0.0150
1184.00,-0.0155
1182.00,-0.0158
1180.00,-0.0160
1178.00,-0.0162
1176.00,-0.0163
1174.00,-0.0164
1172.00,-0.0164
1170.00,-0.0165
1168.00,-0.0165
1166.00,-0.0165
1164.00,-0.0165
1162.00,-0.0165
1160.00,-0.0165
1158.00,-0.0165
1156.00,-0.0165
1154.00,-0.0165
1152.00,-0.0165
1150.00,-0.0165
1148.00,-0.0166
1146.00,-0.0166
1144.00,-0.0166
1142.00,-0.0166
1140.00,-0.0166
1138.00,-0.0165
1136.00,-0.0165
1134.00,-0.0165
1132.00,-0.0164
1130.00,-0.0164
1128.00,-0.0163
1126.00,-0.0163
1124.00,-0.0163
1122.00,-0.0163
1120.00,-0.0162
1118.00,-0.0162
1116.00,-0.0162
1114.00,-0.0162
1112.00,-0.0162
1110.00,-0.0162
1108.00,-0.0162
1106.00,-0.0162
1104.00,-0.0162
1102.00,-0.0161
1100.00,-0.0161
1098.00,-0.0161
1096.00,-0.0160
1094.00,-0.0158
1092.00,-0.0157
1090.00,-0.0159
1088.00,-0.0161
1086.00,-0.0162
1084.00,-0.0163
1082.00,-0.0164
1080.00,-0.0164
1078.00,-0.0164
1076.00,-0.0164
1074.00,-0.0164
1072.00,-0.0164
1070.00,-0.0164
1068.00,-0.0164
1066.00,-0.0164
1064.00,-0.0164
1062.00,-0.0164
1060.00,-0.0165
1058.00,-0.0165
1056.00,-0.0165
1054.00,-0.0165
1052.00,-0.0165
1050.00,-0.0165
1048.00,-0.0165
1046.00,-0.0165
1044.00,-0.0166
1042.00,-0.0166
1040.00,-0.0166
1038.00,-0.0165
1036.00,-0.0165
1034.00,-0.0165
1032.00,-0.0165
1030.00,-0.0165
1028.00,-0.0166
1026.00,-0.0166
1024.00,-0.0166
1022.00,-0.0166
1020.00,-0.0167
1018.00,-0.0167
1016.00,-0.0167
1014.00,-0.0167
1012.00,-0.0167
1010.00,-0.0167
1008.00,-0.0167
1006.00,-0.0167
1004.00,-0.0167
1002.00,-0.0167
1000.00,-0.0167
998.00,-0.0167
996.00,-0.0167
994.00,-0.0168
992.00,-0.0168
990.00,-0.0168
988.00,-0.0168
986.00,-0.0168
984.00,-0.0169
982.00,-0.0168
980.00,-0.0168
978.00,-0.0168
976.00,-0.0168
974.00,-0.0168
972.00,-0.0168
970.00,-0.0168
968.00,-0.0168
966.00,-0.0168
964.00,-0.0168
962.00,-0.0168
960.00,-0.0169
958.00,-0.0169
956.00,-0.0169
954.00,-0.0169
952.00,-0.0169
950.00,-0.0169
948.00,-0.0169
946.00,-0.0168
944.00,-0.0168
942.00,-0.0168
940.00,-0.0168
938.00,-0.0167
936.00,-0.0167
934.00,-0.0167
932.00,-0.0167
930.00,-0.0167
928.00,-0.0167
926.00,-0.0166
924.00,-0.0166
922.00,-0.0165
920.00,-0.0164
918.00,-0.0164
916.00,-0.0163
914.00,-0.0162
912.00,-0.0161
910.00,-0.0160
908.00,-0.0160
906.00,-0.0160
904.00,-0.0160
902.00,-0.0159
900.00,-0.0159
898.00,-0.0160
896.00,-0.0160
894.00,-0.0161
892.00,-0.0162
890.00,-0.0162
888.00,-0.0162
886.00,-0.0162
884.00,-0.0163
882.00,-0.0163
880.00,-0.0163
878.00,-0.0163
876.00,-0.0163
874.00,-0.0164
872.00,-0.0165
870.00,-0.0166
868.00,-0.0167
866.00,-0.0167
864.00,-0.0168
862.00,-0.0168
860.00,-0.0169
858.00,-0.0169
856.00,-0.0169
854.00,-0.0169
852.00,-0.0169
850.00,-0.0168
848.00,-0.0168
846.00,-0.0168
844.00,-0.0168
842.00,-0.0168
840.00,-0.0168
838.00,-0.0168
836.00,-0.0168
834.00,-0.0168
832.00,-0.0169
830.00,-0.0168
828.00,-0.0168
826.00,-0.0167
824.00,-0.0167
822.00,-0.0167
820.00,-0.0167
818.00,-0.0167
816.00,-0.0167
814.00,-0.0167
812.00,-0.0167
810.00,-0.0168
808.00,-0.0168
806.00,-0.0168
804.00,-0.0168
802.00,-0.0167
800.00,-0.0167
798.00,-0.0167
796.00,-0.0167
794.00,-0.0166
792.00,-0.0166
790.00,-0.0166
788.00,-0.0165
786.00,-0.0165
784.00,-0.0166
782.00,-0.0166
780.00,-0.0166
778.00,-0.0166
776.00,-0.0166
774.00,-0.0166
772.00,-0.0166
770.00,-0.0166
768.00,-0.0167
766.00,-0.0167
764.00,-0.0167
762.00,-0.0167
760.00,-0.0167
758.00,-0.0167
756.00,-0.0167
754.00,-0.0167
752.00,-0.0167
750.00,-0.0167
748.00,-0.0167
746.00,-0.0167
744.00,-0.0168
742.00,-0.0168
740.00,-0.0168
738.00,-0.0168
736.00,-0.0168
734.00,-0.0169
732.00,-0.0169
730.00,-0.0168
728.00,-0.0168
726.00,-0.0168
724.00,-0.0168
722.00,-0.0168
720.00,-0.0168
718.00,-0.0168
716.00,-0.0168
714.00,-0.0169
712.00,-0.0168
710.00,-0.0168
708.00,-0.0169
706.00,-0.0169
704.00,-0.0169
702.00,-0.0169
700.00,-0.0168
698.00,-0.0168
696.00,-0.0168
694.00,-0.0168
692.00,-0.0168
690.00,-0.0168
688.00,-0.0168
686.00,-0.0168
684.00,-0.0168
682.00,-0.0169
680.00,-0.0169
678.00,-0.0169
676.00,-0.0169
674.00,-0.0169
672.00,-0.0169
670.00,-0.0169
668.00,-0.0166
666.00,-0.0164
664.00,-0.0167
662.00,-0.0168
660.00,-0.0168
658.00,-0.0168
656.00,-0.0168
654.00,-0.0168
652.00,-0.0169
650.00,-0.0168
648.00,-0.0168
646.00,-0.0168
644.00,-0.0168
642.00,-0.0168
640.00,-0.0168
638.00,-0.0168
636.00,-0.0167
634.00,-0.0168
632.00,-0.0168
630.00,-0.0167
628.00,-0.0168
626.00,-0.0168
624.00,-0.0168
622.00,-0.0168
620.00,-0.0168
618.00,-0.0168
616.00,-0.0168
614.00,-0.0168
612.00,-0.0168
610.00,-0.0169
608.00,-0.0169
606.00,-0.0168
604.00,-0.0168
602.00,-0.0167
600.00,-0.0168
598.00,-0.0168
596.00,-0.0168
594.00,-0.0168
592.00,-0.0168
590.00,-0.0168
588.00,-0.0168
586.00,-0.0169
584.00,-0.0169
582.00,-0.0168
580.00,-0.0168
578.00,-0.0168
576.00,-0.0169
574.00,-0.0169
572.00,-0.0170
570.00,-0.0169
568.00,-0.0168
566.00,-0.0168
564.00,-0.0169
562.00,-0.0169
560.00,-0.0168
558.00,-0.0168
556.00,-0.0167
554.00,-0.0166
552.00,-0.0163
550.00,-0.0160
548.00,-0.0156
546.00,-0.0152
544.00,-0.0149
542.00,-0.0147
540.00,-0.0146
538.00,-0.0145
536.00,-0.0147
534.00,-0.0150
532.00,-0.0150
530.00,-0.0143
528.00,-0.0136
526.00,-0.0140
524.00,-0.0148
522.00,-0.0151
520.00,-0.0149
518.00,-0.0146
516.00,-0.0145
514.00,-0.0146
512.00,-0.0150
510.00,-0.0154
508.00,-0.0159
506.00,-0.0164
504.00,-0.0167
502.00,-0.0169
500.00,-0.0171
