Created as New Dataset,Sample 049 By Analyst Date Wednesday, April 02 2025
cm-1,A
4000.00,-0.0167
3998.00,-0.0167
3996.00,-0.0167
3994.00,-0.0167
3992.00,-0.0167
3990.00,-0.0167
3988.00,-0.0167
3986.00,-0.0167
3984.00,-0.0167
3982.00,-0.0166
3980.00,-0.0166
3978.00,-0.0166
3976.00,-0.0166
3974.00,-0.0166
3972.00,-0.0166
3970.00,-0.0166
3968.00,-0.0166
3966.00,-0.0167
3964.00,-0.0167
3962.00,-0.0167
3960.00,-0.0167
3958.00,-0.0167
3956.00,-0.0167
3954.00,-0.0167
3952.00,-0.0166
3950.00,-0.0166
3948.00,-0.0165
3946.00,-0.0165
3944.00,-0.0165
3942.00,-0.0166
3940.00,-0.0166
3938.00,-0.0166
3936.00,-0.0166
3934.00,-0.0166
3932.00,-0.0166
3930.00,-0.0166
3928.00,-0.0166
3926.00,-0.0166
3924.00,-0.0166
3922.00,-0.0166
3920.00,-0.0165
3918.00,-0.0165
3916.00,-0.0165
3914.00,-0.0166
3912.00,-0.0166
3910.00,-0.0166
3908.00,-0.0165
3906.00,-0.0164
3904.00,-0.0163
3902.00,-0.0163
3900.00,-0.0165
3898.00,-0.0166
3896.00,-0.0167
3894.00,-0.0166
3892.00,-0.0166
3890.00,-0.0166
3888.00,-0.0165
3886.00,-0.0165
3884.00,-0.0164
3882.00,-0.0163
3880.00,-0.0164
3878.00,-0.0165
3876.00,-0.0164
3874.00,-0.0164
3872.00,-0.0163
3870.00,-0.0164
3868.00,-0.0164
3866.00,-0.0164
3864.00,-0.0165
3862.00,-0.0165
3860.00,-0.0165
3858.00,-0.0165
3856.00,-0.0165
3854.00,-0.0164
3852.00,-0.0165
3850.00,-0.0165
3848.00,-0.0165
3846.00,-0.0165
3844.00,-0.0164
3842.00,-0.0163
3840.00,-0.0162
3838.00,-0.0163
3836.00,-0.0164
3834.00,-0.0164
3832.00,-0.0166
3830.00,-0.0166
3828.00,-0.0165
3826.00,-0.0164
3824.00,-0.0163
3822.00,-0.0162
3820.00,-0.0162
3818.00,-0.0162
3816.00,-0.0164
3814.00,-0.0165
3812.00,-0.0165
3810.00,-0.0165
3808.00,-0.0165
3806.00,-0.0164
3804.00,-0.0163
3802.00,-0.0164
3800.00,-0.0164
3798.00,-0.0163
3796.00,-0.0165
3794.00,-0.0166
3792.00,-0.0165
3790.00,-0.0165
3788.00,-0.0165
3786.00,-0.0164
3784.00,-0.0164
3782.00,-0.0164
3780.00,-0.0164
3778.00,-0.0165
3776.00,-0.0166
3774.00,-0.0166
3772.00,-0.0165
3770.00,-0.0165
3768.00,-0.0165
3766.00,-0.0165
3764.00,-0.0165
3762.00,-0.0164
3760.00,-0.0163
3758.00,-0.0163
3756.00,-0.0162
3754.00,-0.0162
3752.00,-0.0162
3750.00,-0.0161
3748.00,-0.0161
3746.00,-0.0163
3744.00,-0.0166
3742.00,-0.0165
3740.00,-0.0163
3738.00,-0.0163
3736.00,-0.0161
3734.00,-0.0161
3732.00,-0.0163
3730.00,-0.0164
3728.00,-0.0164
3726.00,-0.0163
3724.00,-0.0162
3722.00,-0.0162
3720.00,-0.0163
3718.00,-0.0164
3716.00,-0.0164
3714.00,-0.0163
3712.00,-0.0163
3710.00,-0.0163
3708.00,-0.0165
3706.00,-0.0166
3704.00,-0.0165
3702.00,-0.0165
3700.00,-0.0165
3698.00,-0.0165
3696.00,-0.0165
3694.00,-0.0164
3692.00,-0.0163
3690.00,-0.0163
3688.00,-0.0164
3686.00,-0.0165
3684.00,-0.0166
3682.00,-0.0166
3680.00,-0.0165
3678.00,-0.0163
3676.00,-0.0163
3674.00,-0.0163
3672.00,-0.0163
3670.00,-0.0164
3668.00,-0.0165
3666.00,-0.0165
3664.00,-0.0166
3662.00,-0.0166
3660.00,-0.0165
3658.00,-0.0164
3656.00,-0.0165
3654.00,-0.0164
3652.00,-0.0162
3650.00,-0.0162
3648.00,-0.0162
3646.00,-0.0164
3644.00,-0.0166
3642.00,-0.0166
3640.00,-0.0166
3638.00,-0.0165
3636.00,-0.0164
3634.00,-0.0164
3632.00,-0.0162
3630.00,-0.0162
3628.00,-0.0163
3626.00,-0.0164
3624.00,-0.0165
3622.00,-0.0165
3620.00,-0.0164
3618.00,-0.0164
3616.00,-0.0163
3614.00,-0.0163
3612.00,-0.0164
3610.00,-0.0163
3608.00,-0.0164
3606.00,-0.0164
3604.00,-0.0164
3602.00,-0.0164
3600.00,-0.0163
3598.00,-0.0163
3596.00,-0.0163
3594.00,-0.0164
3592.00,-0.0164
3590.00,-0.0164
3588.00,-0.0164
3586.00,-0.0165
3584.00,-0.0166
3582.00,-0.0166
3580.00,-0.0166
3578.00,-0.0165
3576.00,-0.0165
3574.00,-0.0165
3572.00,-0.0164
3570.00,-0.0163
3568.00,-0.0162
3566.00,-0.0162
3564.00,-0.0163
3562.00,-0.0164
3560.00,-0.0165
3558.00,-0.0166
3556.00,-0.0166
3554.00,-0.0166
3552.00,-0.0166
3550.00,-0.0165
3548.00,-0.0165
3546.00,-0.0164
3544.00,-0.0164
3542.00,-0.0164
3540.00,-0.0164
3538.00,-0.0164
3536.00,-0.0164
3534.00,-0.0164
3532.00,-0.0164
3530.00,-0.0164
3528.00,-0.0164
3526.00,-0.0164
3524.00,-0.0165
3522.00,-0.0165
3520.00,-0.0165
3518.00,-0.0165
3516.00,-0.0165
3514.00,-0.0165
3512.00,-0.0164
3510.00,-0.0164
3508.00,-0.0163
3506.00,-0.0163
3504.00,-0.0163
3502.00,-0.0163
3500.00,-0.0163
3498.00,-0.0164
3496.00,-0.0164
3494.00,-0.0164
3492.00,-0.0165
3490.00,-0.0164
3488.00,-0.0164
3486.00,-0.0164
3484.00,-0.0163
3482.00,-0.0163
3480.00,-0.0163
3478.00,-0.0162
3476.00,-0.0162
3474.00,-0.0161
3472.00,-0.0161
3470.00,-0.0162
3468.00,-0.0162
3466.00,-0.0162
3464.00,-0.0162
3462.00,-0.0162
3460.00,-0.0163
3458.00,-0.0163
3456.00,-0.0163
3454.00,-0.0163
3452.00,-0.0162
3450.00,-0.0162
3448.00,-0.0161
3446.00,-0.0161
3444.00,-0.0161
3442.00,-0.0162
3440.00,-0.0162
3438.00,-0.0163
3436.00,-0.0164
3434.00,-0.0164
3432.00,-0.0165
3430.00,-0.0165
3428.00,-0.0165
3426.00,-0.0166
3424.00,-0.0166
3422.00,-0.0165
3420.00,-0.0165
3418.00,-0.0165
3416.00,-0.0165
3414.00,-0.0165
3412.00,-0.0165
3410.00,-0.0165
3408.00,-0.0165
3406.00,-0.0165
3404.00,-0.0166
3402.00,-0.0166
3400.00,-0.0166
3398.00,-0.0167
3396.00,-0.0167
3394.00,-0.0167
3392.00,-0.0166
3390.00,-0.0166
3388.00,-0.0166
3386.00,-0.0165
3384.00,-0.0165
3382.00,-0.0165
3380.00,-0.0165
3378.00,-0.0165
3376.00,-0.0165
3374.00,-0.0166
3372.00,-0.0166
3370.00,-0.0166
3368.00,-0.0167
3366.00,-0.0167
3364.00,-0.0167
3362.00,-0.0166
3360.00,-0.0166
3358.00,-0.0166
3356.00,-0.0166
3354.00,-0.0165
3352.00,-0.0165
3350.00,-0.0165
3348.00,-0.0165
3346.00,-0.0165
3344.00,-0.0165
3342.00,-0.0166
3340.00,-0.0166
3338.00,-0.0166
3336.00,-0.0166
3334.00,-0.0167
3332.00,-0.0167
3330.00,-0.0167
3328.00,-0.0166
3326.00,-0.0166
3324.00,-0.0166
3322.00,-0.0166
3320.00,-0.0165
3318.00,-0.0165
3316.00,-0.0165
3314.00,-0.0165
3312.00,-0.0166
3310.00,-0.0166
3308.00,-0.0167
3306.00,-0.0167
3304.00,-0.0167
3302.00,-0.0167
3300.00,-0.0167
3298.00,-0.0167
3296.00,-0.0167
3294.00,-0.0166
3292.00,-0.0166
3290.00,-0.0166
3288.00,-0.0165
3286.00,-0.0165
3284.00,-0.0165
3282.00,-0.0166
3280.00,-0.0166
3278.00,-0.0166
3276.00,-0.0166
3274.00,-0.0167
3272.00,-0.0167
3270.00,-0.0167
3268.00,-0.0167
3266.00,-0.0166
3264.00,-0.0166
3262.00,-0.0166
3260.00,-0.0165
3258.00,-0.0165
3256.00,-0.0165
3254.00,-0.0165
3252.00,-0.0165
3250.00,-0.0165
3248.00,-0.0166
3246.00,-0.0166
3244.00,-0.0166
3242.00,-0.0166
3240.00,-0.0167
3238.00,-0.0167
3236.00,-0.0167
3234.00,-0.0166
3232.00,-0.0166
3230.00,-0.0166
3228.00,-0.0165
3226.00,-0.0165
3224.00,-0.0165
3222.00,-0.0165
3220.00,-0.0165
3218.00,-0.0166
3216.00,-0.0166
3214.00,-0.0166
3212.00,-0.0167
3210.00,-0.0167
3208.00,-0.0167
3206.00,-0.0167
3204.00,-0.0167
3202.00,-0.0167
3200.00,-0.0166
3198.00,-0.0166
3196.00,-0.0166
3194.00,-0.0165
3192.00,-0.0165
3190.00,-0.0165
3188.00,-0.0166
3186.00,-0.0166
3184.00,-0.0166
3182.00,-0.0167
3180.00,-0.0167
3178.00,-0.0167
3176.00,-0.0167
3174.00,-0.0167
3172.00,-0.0166
3170.00,-0.0166
3168.00,-0.0166
3166.00,-0.0165
3164.00,-0.0165
3162.00,-0.0165
3160.00,-0.0165
3158.00,-0.0165
3156.00,-0.0165
3154.00,-0.0166
3152.00,-0.0166
3150.00,-0.0166
3148.00,-0.0167
3146.00,-0.0167
3144.00,-0.0167
3142.00,-0.0167
3140.00,-0.0166
3138.00,-0.0166
3136.00,-0.0166
3134.00,-0.0165
3132.00,-0.0165
3130.00,-0.0165
3128.00,-0.0165
3126.00,-0.0165
3124.00,-0.0165
3122.00,-0.0165
3120.00,-0.0165
3118.00,-0.0166
3116.00,-0.0166
3114.00,-0.0166
3112.00,-0.0165
3110.00,-0.0165
3108.00,-0.0165
3106.00,-0.0164
3104.00,-0.0164
3102.00,-0.0163
3100.00,-0.0163
3098.00,-0.0162
3096.00,-0.0162
3094.00,-0.0162
3092.00,-0.0162
3090.00,-0.0162
3088.00,-0.0163
3086.00,-0.0163
3084.00,-0.0163
3082.00,-0.0162
3080.00,-0.0162
3078.00,-0.0162
3076.00,-0.0161
3074.00,-0.0161
3072.00,-0.0160
3070.00,-0.0160
3068.00,-0.0160
3066.00,-0.0160
3064.00,-0.0160
3062.00,-0.0160
3060.00,-0.0160
3058.00,-0.0161
3056.00,-0.0161
3054.00,-0.0161
3052.00,-0.0161
3050.00,-0.0161
3048.00,-0.0160
3046.00,-0.0160
3044.00,-0.0159
3042.00,-0.0158
3040.00,-0.0156
3038.00,-0.0155
3036.00,-0.0153
3034.00,-0.0152
3032.00,-0.0151
3030.00,-0.0150
3028.00,-0.0150
3026.00,-0.0150
3024.00,-0.0151
3022.00,-0.0151
3020.00,-0.0151
3018.00,-0.0150
3016.00,-0.0149
3014.00,-0.0149
3012.00,-0.0149
3010.00,-0.0149
3008.00,-0.0149
3006.00,-0.0149
3004.00,-0.0149
3002.00,-0.0149
3000.00,-0.0150
2998.00,-0.0150
2996.00,-0.0151
2994.00,-0.0152
2992.00,-0.0153
2990.00,-0.0154
2988.00,-0.0154
2986.00,-0.0155
2984.00,-0.0155
2982.00,-0.0155
2980.00,-0.0155
2978.00,-0.0154
2976.00,-0.0152
2974.00,-0.0147
2972.00,-0.0141
2970.00,-0.0139
2968.00,-0.0145
2966.00,-0.0151
2964.00,-0.0154
2962.00,-0.0155
2960.00,-0.0155
2958.00,-0.0155
2956.00,-0.0154
2954.00,-0.0154
2952.00,-0.0153
2950.00,-0.0152
2948.00,-0.0151
2946.00,-0.0151
2944.00,-0.0151
2942.00,-0.0151
2940.00,-0.0152
2938.00,-0.0152
2936.00,-0.0154
2934.00,-0.0154
2932.00,-0.0155
2930.00,-0.0155
2928.00,-0.0156
2926.00,-0.0156
2924.00,-0.0156
2922.00,-0.0156
2920.00,-0.0157
2918.00,-0.0157
2916.00,-0.0157
2914.00,-0.0158
2912.00,-0.0159
2910.00,-0.0159
2908.00,-0.0160
2906.00,-0.0161
2904.00,-0.0162
2902.00,-0.0162
2900.00,-0.0163
2898.00,-0.0164
2896.00,-0.0164
2894.00,-0.0164
2892.00,-0.0164
2890.00,-0.0164
2888.00,-0.0164
2886.00,-0.0164
2884.00,-0.0163
2882.00,-0.0163
2880.00,-0.0163
2878.00,-0.0163
2876.00,-0.0163
2874.00,-0.0163
2872.00,-0.0164
2870.00,-0.0164
2868.00,-0.0164
2866.00,-0.0164
2864.00,-0.0164
2862.00,-0.0164
2860.00,-0.0164
2858.00,-0.0164
2856.00,-0.0164
2854.00,-0.0163
2852.00,-0.0163
2850.00,-0.0163
2848.00,-0.0163
2846.00,-0.0163
2844.00,-0.0164
2842.00,-0.0164
2840.00,-0.0165
2838.00,-0.0165
2836.00,-0.0166
2834.00,-0.0166
2832.00,-0.0166
2830.00,-0.0166
2828.00,-0.0166
2826.00,-0.0166
2824.00,-0.0166
2822.00,-0.0165
2820.00,-0.0165
2818.00,-0.0165
2816.00,-0.0165
2814.00,-0.0165
2812.00,-0.0165
2810.00,-0.0166
2808.00,-0.0166
2806.00,-0.0166
2804.00,-0.0166
2802.00,-0.0167
2800.00,-0.0167
2798.00,-0.0166
2796.00,-0.0166
2794.00,-0.0166
2792.00,-0.0166
2790.00,-0.0165
2788.00,-0.0165
2786.00,-0.0165
2784.00,-0.0165
2782.00,-0.0165
2780.00,-0.0165
2778.00,-0.0166
2776.00,-0.0166
2774.00,-0.0167
2772.00,-0.0167
2770.00,-0.0167
2768.00,-0.0167
2766.00,-0.0167
2764.00,-0.0167
2762.00,-0.0166
2760.00,-0.0166
2758.00,-0.0166
2756.00,-0.0165
2754.00,-0.0165
2752.00,-0.0165
2750.00,-0.0166
2748.00,-0.0166
2746.00,-0.0166
2744.00,-0.0167
2742.00,-0.0167
2740.00,-0.0167
2738.00,-0.0167
2736.00,-0.0167
2734.00,-0.0167
2732.00,-0.0167
2730.00,-0.0166
2728.00,-0.0166
2726.00,-0.0165
2724.00,-0.0165
2722.00,-0.0165
2720.00,-0.0165
2718.00,-0.0165
2716.00,-0.0166
2714.00,-0.0166
2712.00,-0.0166
2710.00,-0.0167
2708.00,-0.0167
2706.00,-0.0167
2704.00,-0.0167
2702.00,-0.0166
2700.00,-0.0166
2698.00,-0.0166
2696.00,-0.0165
2694.00,-0.0165
2692.00,-0.0165
2690.00,-0.0165
2688.00,-0.0165
2686.00,-0.0166
2684.00,-0.0166
2682.00,-0.0167
2680.00,-0.0167
2678.00,-0.0167
2676.00,-0.0167
2674.00,-0.0167
2672.00,-0.0167
2670.00,-0.0167
2668.00,-0.0166
2666.00,-0.0166
2664.00,-0.0166
2662.00,-0.0165
2660.00,-0.0165
2658.00,-0.0165
2656.00,-0.0166
2654.00,-0.0166
2652.00,-0.0166
2650.00,-0.0167
2648.00,-0.0167
2646.00,-0.0167
2644.00,-0.0167
2642.00,-0.0167
2640.00,-0.0167
2638.00,-0.0167
2636.00,-0.0166
2634.00,-0.0166
2632.00,-0.0165
2630.00,-0.0165
2628.00,-0.0165
2626.00,-0.0165
2624.00,-0.0165
2622.00,-0.0166
2620.00,-0.0166
2618.00,-0.0166
2616.00,-0.0167
2614.00,-0.0167
2612.00,-0.0167
2610.00,-0.0167
2608.00,-0.0167
2606.00,-0.0166
2604.00,-0.0166
2602.00,-0.0165
2600.00,-0.0165
2598.00,-0.0165
2596.00,-0.0165
2594.00,-0.0165
2592.00,-0.0165
2590.00,-0.0166
2588.00,-0.0166
2586.00,-0.0166
2584.00,-0.0167
2582.00,-0.0167
2580.00,-0.0167
2578.00,-0.0167
2576.00,-0.0166
2574.00,-0.0166
2572.00,-0.0165
2570.00,-0.0165
2568.00,-0.0165
2566.00,-0.0165
2564.00,-0.0165
2562.00,-0.0165
2560.00,-0.0166
2558.00,-0.0166
2556.00,-0.0166
2554.00,-0.0167
2552.00,-0.0167
2550.00,-0.0167
2548.00,-0.0167
2546.00,-0.0167
2544.00,-0.0166
2542.00,-0.0166
2540.00,-0.0165
2538.00,-0.0165
2536.00,-0.0165
2534.00,-0.0165
2532.00,-0.0165
2530.00,-0.0165
2528.00,-0.0166
2526.00,-0.0166
2524.00,-0.0166
2522.00,-0.0167
2520.00,-0.0167
2518.00,-0.0167
2516.00,-0.0167
2514.00,-0.0166
2512.00,-0.0166
2510.00,-0.0166
2508.00,-0.0165
2506.00,-0.0165
2504.00,-0.0165
2502.00,-0.0165
2500.00,-0.0165
2498.00,-0.0165
2496.00,-0.0166
2494.00,-0.0166
2492.00,-0.0166
2490.00,-0.0167
2488.00,-0.0167
2486.00,-0.0167
2484.00,-0.0167
2482.00,-0.0166
2480.00,-0.0166
2478.00,-0.0165
2476.00,-0.0165
2474.00,-0.0165
2472.00,-0.0165
2470.00,-0.0165
2468.00,-0.0165
2466.00,-0.0165
2464.00,-0.0166
2462.00,-0.0166
2460.00,-0.0166
2458.00,-0.0167
2456.00,-0.0167
2454.00,-0.0166
2452.00,-0.0166
2450.00,-0.0166
2448.00,-0.0165
2446.00,-0.0165
2444.00,-0.0164
2442.00,-0.0164
2440.00,-0.0164
2438.00,-0.0165
2436.00,-0.0165
2434.00,-0.0165
2432.00,-0.0166
2430.00,-0.0166
2428.00,-0.0166
2426.00,-0.0167
2424.00,-0.0167
2422.00,-0.0167
2420.00,-0.0167
2418.00,-0.0166
2416.00,-0.0166
2414.00,-0.0165
2412.00,-0.0165
2410.00,-0.0165
2408.00,-0.0165
2406.00,-0.0165
2404.00,-0.0166
2402.00,-0.0166
2400.00,-0.0166
2398.00,-0.0167
2396.00,-0.0167
2394.00,-0.0167
2392.00,-0.0167
2390.00,-0.0167
2388.00,-0.0166
2386.00,-0.0166
2384.00,-0.0166
2382.00,-0.0166
2380.00,-0.0166
2378.00,-0.0166
2376.00,-0.0166
2374.00,-0.0167
2372.00,-0.0166
2370.00,-0.0166
2368.00,-0.0166
2366.00,-0.0166
2364.00,-0.0167
2362.00,-0.0167
2360.00,-0.0167
2358.00,-0.0166
2356.00,-0.0166
2354.00,-0.0165
2352.00,-0.0166
2350.00,-0.0167
2348.00,-0.0167
2346.00,-0.0166
2344.00,-0.0167
2342.00,-0.0167
2340.00,-0.0166
2338.00,-0.0166
2336.00,-0.0166
2334.00,-0.0166
2332.00,-0.0166
2330.00,-0.0166
2328.00,-0.0166
2326.00,-0.0166
2324.00,-0.0165
2322.00,-0.0165
2320.00,-0.0165
2318.00,-0.0165
2316.00,-0.0164
2314.00,-0.0164
2312.00,-0.0165
2310.00,-0.0166
2308.00,-0.0167
2306.00,-0.0167
2304.00,-0.0167
2302.00,-0.0167
2300.00,-0.0168
2298.00,-0.0167
2296.00,-0.0167
2294.00,-0.0167
2292.00,-0.0166
2290.00,-0.0166
2288.00,-0.0166
2286.00,-0.0165
2284.00,-0.0165
2282.00,-0.0165
2280.00,-0.0165
2278.00,-0.0165
2276.00,-0.0166
2274.00,-0.0166
2272.00,-0.0166
2270.00,-0.0166
2268.00,-0.0166
2266.00,-0.0166
2264.00,-0.0166
2262.00,-0.0165
2260.00,-0.0165
2258.00,-0.0165
2256.00,-0.0164
2254.00,-0.0164
2252.00,-0.0164
2250.00,-0.0164
2248.00,-0.0165
2246.00,-0.0165
2244.00,-0.0165
2242.00,-0.0166
2240.00,-0.0166
2238.00,-0.0166
2236.00,-0.0166
2234.00,-0.0166
2232.00,-0.0166
2230.00,-0.0165
2228.00,-0.0165
2226.00,-0.0165
2224.00,-0.0165
2222.00,-0.0164
2220.00,-0.0164
2218.00,-0.0165
2216.00,-0.0165
2214.00,-0.0165
2212.00,-0.0166
2210.00,-0.0166
2208.00,-0.0166
2206.00,-0.0166
2204.00,-0.0166
2202.00,-0.0166
2200.00,-0.0166
2198.00,-0.0166
2196.00,-0.0165
2194.00,-0.0165
2192.00,-0.0165
2190.00,-0.0164
2188.00,-0.0164
2186.00,-0.0165
2184.00,-0.0165
2182.00,-0.0165
2180.00,-0.0165
2178.00,-0.0166
2176.00,-0.0166
2174.00,-0.0166
2172.00,-0.0166
2170.00,-0.0165
2168.00,-0.0165
2166.00,-0.0165
2164.00,-0.0164
2162.00,-0.0164
2160.00,-0.0164
2158.00,-0.0164
2156.00,-0.0164
2154.00,-0.0164
2152.00,-0.0164
2150.00,-0.0164
2148.00,-0.0165
2146.00,-0.0165
2144.00,-0.0165
2142.00,-0.0165
2140.00,-0.0165
2138.00,-0.0164
2136.00,-0.0164
2134.00,-0.0163
2132.00,-0.0163
2130.00,-0.0163
2128.00,-0.0163
2126.00,-0.0163
2124.00,-0.0163
2122.00,-0.0163
2120.00,-0.0164
2118.00,-0.0164
2116.00,-0.0165
2114.00,-0.0165
2112.00,-0.0165
2110.00,-0.0165
2108.00,-0.0165
2106.00,-0.0165
2104.00,-0.0164
2102.00,-0.0164
2100.00,-0.0164
2098.00,-0.0164
2096.00,-0.0164
2094.00,-0.0164
2092.00,-0.0164
2090.00,-0.0164
2088.00,-0.0165
2086.00,-0.0165
2084.00,-0.0166
2082.00,-0.0166
2080.00,-0.0166
2078.00,-0.0166
2076.00,-0.0166
2074.00,-0.0165
2072.00,-0.0165
2070.00,-0.0165
2068.00,-0.0165
2066.00,-0.0164
2064.00,-0.0164
2062.00,-0.0164
2060.00,-0.0165
2058.00,-0.0165
2056.00,-0.0165
2054.00,-0.0166
2052.00,-0.0166
2050.00,-0.0166
2048.00,-0.0166
2046.00,-0.0166
2044.00,-0.0166
2042.00,-0.0165
2040.00,-0.0165
2038.00,-0.0165
2036.00,-0.0165
2034.00,-0.0165
2032.00,-0.0165
2030.00,-0.0165
2028.00,-0.0165
2026.00,-0.0166
2024.00,-0.0166
2022.00,-0.0166
2020.00,-0.0166
2018.00,-0.0166
2016.00,-0.0166
2014.00,-0.0166
2012.00,-0.0166
2010.00,-0.0165
2008.00,-0.0165
2006.00,-0.0164
2004.00,-0.0164
2002.00,-0.0164
2000.00,-0.0164
1998.00,-0.0165
1996.00,-0.0165
1994.00,-0.0165
1992.00,-0.0166
1990.00,-0.0166
1988.00,-0.0166
1986.00,-0.0166
1984.00,-0.0166
1982.00,-0.0166
1980.00,-0.0166
1978.00,-0.0166
1976.00,-0.0165
1974.00,-0.0165
1972.00,-0.0165
1970.00,-0.0165
1968.00,-0.0165
1966.00,-0.0165
1964.00,-0.0166
1962.00,-0.0166
1960.00,-0.0166
1958.00,-0.0166
1956.00,-0.0167
1954.00,-0.0167
1952.00,-0.0167
1950.00,-0.0167
1948.00,-0.0166
1946.00,-0.0166
1944.00,-0.0165
1942.00,-0.0165
1940.00,-0.0165
1938.00,-0.0165
1936.00,-0.0165
1934.00,-0.0166
1932.00,-0.0166
1930.00,-0.0166
1928.00,-0.0166
1926.00,-0.0166
1924.00,-0.0166
1922.00,-0.0166
1920.00,-0.0166
1918.00,-0.0166
1916.00,-0.0166
1914.00,-0.0165
1912.00,-0.0165
1910.00,-0.0164
1908.00,-0.0164
1906.00,-0.0165
1904.00,-0.0165
1902.00,-0.0165
1900.00,-0.0165
1898.00,-0.0166
1896.00,-0.0166
1894.00,-0.0166
1892.00,-0.0166
1890.00,-0.0166
1888.00,-0.0166
1886.00,-0.0166
1884.00,-0.0165
1882.00,-0.0165
1880.00,-0.0165
1878.00,-0.0165
1876.00,-0.0165
1874.00,-0.0165
1872.00,-0.0165
1870.00,-0.0165
1868.00,-0.0166
1866.00,-0.0166
1864.00,-0.0166
1862.00,-0.0166
1860.00,-0.0166
1858.00,-0.0166
1856.00,-0.0166
1854.00,-0.0166
1852.00,-0.0165
1850.00,-0.0165
1848.00,-0.0165
1846.00,-0.0165
1844.00,-0.0165
1842.00,-0.0165
1840.00,-0.0165
1838.00,-0.0165
1836.00,-0.0165
1834.00,-0.0165
1832.00,-0.0165
1830.00,-0.0165
1828.00,-0.0165
1826.00,-0.0165
1824.00,-0.0164
1822.00,-0.0164
1820.00,-0.0163
1818.00,-0.0163
1816.00,-0.0162
1814.00,-0.0161
1812.00,-0.0161
1810.00,-0.0160
1808.00,-0.0160
1806.00,-0.0160
1804.00,-0.0159
1802.00,-0.0159
1800.00,-0.0158
1798.00,-0.0156
1796.00,-0.0154
1794.00,-0.0140
1792.00,-0.0108
1790.00,-0.0114
1788.00,-0.0140
1786.00,-0.0146
1784.00,-0.0144
1782.00,-0.0143
1780.00,-0.0141
1778.00,-0.0138
1776.00,-0.0135
1774.00,-0.0130
1772.00,-0.0124
1770.00,-0.0119
1768.00,-0.0114
1766.00,-0.0106
1764.00,-0.0097
1762.00,-0.0087
1760.00,-0.0079
1758.00,-0.0071
1756.00,-0.0061
1754.00,-0.0052
1752.00,-0.0043
1750.00,-0.0035
1748.00,-0.0029
1746.00,-0.0023
1744.00,-0.0017
1742.00,-0.0012
1740.00,-0.0008
1738.00,-0.0007
1736.00,-0.0014
1734.00,-0.0028
1732.00,-0.0039
1730.00,-0.0042
1728.00,-0.0042
1726.00,-0.0045
1724.00,-0.0050
1722.00,-0.0056
1720.00,-0.0063
1718.00,-0.0072
1716.00,-0.0082
1714.00,-0.0093
1712.00,-0.0104
1710.00,-0.0114
1708.00,-0.0123
1706.00,-0.0132
1704.00,-0.0139
1702.00,-0.0145
1700.00,-0.0149
1698.00,-0.0152
1696.00,-0.0156
1694.00,-0.0157
1692.00,-0.0158
1690.00,-0.0158
1688.00,-0.0159
1686.00,-0.0161
1684.00,-0.0161
1682.00,-0.0162
1680.00,-0.0163
1678.00,-0.0163
1676.00,-0.0164
1674.00,-0.0164
1672.00,-0.0164
1670.00,-0.0164
1668.00,-0.0164
1666.00,-0.0164
1664.00,-0.0164
1662.00,-0.0164
1660.00,-0.0164
1658.00,-0.0164
1656.00,-0.0165
1654.00,-0.0166
1652.00,-0.0166
1650.00,-0.0164
1648.00,-0.0165
1646.00,-0.0166
1644.00,-0.0166
1642.00,-0.0166
1640.00,-0.0166
1638.00,-0.0165
1636.00,-0.0165
1634.00,-0.0165
1632.00,-0.0165
1630.00,-0.0165
1628.00,-0.0164
1626.00,-0.0164
1624.00,-0.0165
1622.00,-0.0165
1620.00,-0.0165
1618.00,-0.0166
1616.00,-0.0165
1614.00,-0.0166
1612.00,-0.0166
1610.00,-0.0166
1608.00,-0.0166
1606.00,-0.0165
1604.00,-0.0165
1602.00,-0.0165
1600.00,-0.0164
1598.00,-0.0164
1596.00,-0.0164
1594.00,-0.0164
1592.00,-0.0164
1590.00,-0.0164
1588.00,-0.0164
1586.00,-0.0164
1584.00,-0.0165
1582.00,-0.0165
1580.00,-0.0165
1578.00,-0.0165
1576.00,-0.0164
1574.00,-0.0163
1572.00,-0.0163
1570.00,-0.0162
1568.00,-0.0162
1566.00,-0.0162
1564.00,-0.0162
1562.00,-0.0162
1560.00,-0.0162
1558.00,-0.0162
1556.00,-0.0163
1554.00,-0.0163
1552.00,-0.0163
1550.00,-0.0163
1548.00,-0.0163
1546.00,-0.0162
1544.00,-0.0162
1542.00,-0.0162
1540.00,-0.0162
1538.00,-0.0162
1536.00,-0.0161
1534.00,-0.0161
1532.00,-0.0161
1530.00,-0.0161
1528.00,-0.0161
1526.00,-0.0161
1524.00,-0.0161
1522.00,-0.0162
1520.00,-0.0162
1518.00,-0.0162
1516.00,-0.0162
1514.00,-0.0162
1512.00,-0.0161
1510.00,-0.0161
1508.00,-0.0161
1506.00,-0.0161
1504.00,-0.0161
1502.00,-0.0160
1500.00,-0.0160
1498.00,-0.0160
1496.00,-0.0160
1494.00,-0.0159
1492.00,-0.0159
1490.00,-0.0159
1488.00,-0.0160
1486.00,-0.0160
1484.00,-0.0160
1482.00,-0.0159
1480.00,-0.0158
1478.00,-0.0157
1476.00,-0.0155
1474.00,-0.0155
1472.00,-0.0154
1470.00,-0.0154
1468.00,-0.0153
1466.00,-0.0152
1464.00,-0.0151
1462.00,-0.0151
1460.00,-0.0150
1458.00,-0.0149
1456.00,-0.0147
1454.00,-0.0146
1452.00,-0.0146
1450.00,-0.0144
1448.00,-0.0143
1446.00,-0.0143
1444.00,-0.0142
1442.00,-0.0142
1440.00,-0.0141
1438.00,-0.0142
1436.00,-0.0141
1434.00,-0.0142
1432.00,-0.0143
1430.00,-0.0144
1428.00,-0.0144
1426.00,-0.0144
1424.00,-0.0144
1422.00,-0.0145
1420.00,-0.0146
1418.00,-0.0147
1416.00,-0.0147
1414.00,-0.0148
1412.00,-0.0148
1410.00,-0.0149
1408.00,-0.0149
1406.00,-0.0149
1404.00,-0.0150
1402.00,-0.0150
1400.00,-0.0150
1398.00,-0.0149
1396.00,-0.0148
1394.00,-0.0146
1392.00,-0.0143
1390.00,-0.0138
1388.00,-0.0132
1386.00,-0.0123
1384.00,-0.0113
1382.00,-0.0102
1380.00,-0.0093
1378.00,-0.0087
1376.00,-0.0082
1374.00,-0.0078
1372.00,-0.0077
1370.00,-0.0076
1368.00,-0.0073
1366.00,-0.0069
1364.00,-0.0074
1362.00,-0.0084
1360.00,-0.0090
1358.00,-0.0093
1356.00,-0.0093
1354.00,-0.0093
1352.00,-0.0095
1350.00,-0.0101
1348.00,-0.0108
1346.00,-0.0115
1344.00,-0.0123
1342.00,-0.0130
1340.00,-0.0137
1338.00,-0.0143
1336.00,-0.0147
1334.00,-0.0151
1332.00,-0.0154
1330.00,-0.0156
1328.00,-0.0158
1326.00,-0.0159
1324.00,-0.0160
1322.00,-0.0161
1320.00,-0.0161
1318.00,-0.0161
1316.00,-0.0162
1314.00,-0.0162
1312.00,-0.0163
1310.00,-0.0163
1308.00,-0.0163
1306.00,-0.0164
1304.00,-0.0164
1302.00,-0.0165
1300.00,-0.0165
1298.00,-0.0165
1296.00,-0.0165
1294.00,-0.0165
1292.00,-0.0165
1290.00,-0.0165
1288.00,-0.0165
1286.00,-0.0164
1284.00,-0.0164
1282.00,-0.0164
1280.00,-0.0164
1278.00,-0.0164
1276.00,-0.0165
1274.00,-0.0165
1272.00,-0.0165
1270.00,-0.0165
1268.00,-0.0165
1266.00,-0.0165
1264.00,-0.0164
1262.00,-0.0164
1260.00,-0.0164
1258.00,-0.0163
1256.00,-0.0163
1254.00,-0.0163
1252.00,-0.0162
1250.00,-0.0161
1248.00,-0.0160
1246.00,-0.0158
1244.00,-0.0154
1242.00,-0.0148
1240.00,-0.0138
1238.00,-0.0126
1236.00,-0.0112
1234.00,-0.0097
1232.00,-0.0085
1230.00,-0.0078
1228.00,-0.0077
1226.00,-0.0083
1224.00,-0.0092
1222.00,-0.0097
1220.00,-0.0082
1218.00,-0.0061
1216.00,-0.0062
1214.00,-0.0078
1212.00,-0.0088
1210.00,-0.0089
1208.00,-0.0087
1206.00,-0.0086
1204.00,-0.0088
1202.00,-0.0094
1200.00,-0.0102
1198.00,-0.0112
1196.00,-0.0121
1194.00,-0.0130
1192.00,-0.0138
1190.00,-0.0144
1188.00,-0.0149
1186.00,-0.0154
1184.00,-0.0157
1182.00,-0.0159
1180.00,-0.0160
1178.00,-0.0161
1176.00,-0.0162
1174.00,-0.0163
1172.00,-0.0163
1170.00,-0.0163
1168.00,-0.0163
1166.00,-0.0163
1164.00,-0.0163
1162.00,-0.0163
1160.00,-0.0163
1158.00,-0.0163
1156.00,-0.0163
1154.00,-0.0163
1152.00,-0.0163
1150.00,-0.0163
1148.00,-0.0164
1146.00,-0.0164
1144.00,-0.0164
1142.00,-0.0164
1140.00,-0.0164
1138.00,-0.0164
1136.00,-0.0163
1134.00,-0.0163
1132.00,-0.0163
1130.00,-0.0162
1128.00,-0.0162
1126.00,-0.0162
1124.00,-0.0161
1122.00,-0.0161
1120.00,-0.0161
1118.00,-0.0161
1116.00,-0.0161
1114.00,-0.0161
1112.00,-0.0161
1110.00,-0.0161
1108.00,-0.0161
1106.00,-0.0161
1104.00,-0.0161
1102.00,-0.0161
1100.00,-0.0160
1098.00,-0.0160
1096.00,-0.0159
1094.00,-0.0158
1092.00,-0.0157
1090.00,-0.0159
1088.00,-0.0161
1086.00,-0.0161
1084.00,-0.0162
1082.00,-0.0162
1080.00,-0.0163
1078.00,-0.0163
1076.00,-0.0163
1074.00,-0.0162
1072.00,-0.0162
1070.00,-0.0162
1068.00,-0.0162
1066.00,-0.0162
1064.00,-0.0162
1062.00,-0.0163
1060.00,-0.0163
1058.00,-0.0163
1056.00,-0.0163
1054.00,-0.0163
1052.00,-0.0163
1050.00,-0.0163
1048.00,-0.0163
1046.00,-0.0164
1044.00,-0.0164
1042.00,-0.0164
1040.00,-0.0163
1038.00,-0.0163
1036.00,-0.0163
1034.00,-0.0163
1032.00,-0.0163
1030.00,-0.0163
1028.00,-0.0164
1026.00,-0.0164
1024.00,-0.0164
1022.00,-0.0164
1020.00,-0.0165
1018.00,-0.0165
1016.00,-0.0165
1014.00,-0.0165
1012.00,-0.0165
1010.00,-0.0165
1008.00,-0.0165
1006.00,-0.0165
1004.00,-0.0165
1002.00,-0.0165
1000.00,-0.0165
998.00,-0.0165
996.00,-0.0166
994.00,-0.0166
992.00,-0.0166
990.00,-0.0166
988.00,-0.0167
986.00,-0.0167
984.00,-0.0167
982.00,-0.0167
980.00,-0.0166
978.00,-0.0166
976.00,-0.0166
974.00,-0.0166
972.00,-0.0166
970.00,-0.0166
968.00,-0.0166
966.00,-0.0166
964.00,-0.0166
962.00,-0.0167
960.00,-0.0167
958.00,-0.0167
956.00,-0.0167
954.00,-0.0167
952.00,-0.0167
950.00,-0.0167
948.00,-0.0167
946.00,-0.0167
944.00,-0.0166
942.00,-0.0166
940.00,-0.0166
938.00,-0.0166
936.00,-0.0166
934.00,-0.0166
932.00,-0.0166
930.00,-0.0166
928.00,-0.0166
926.00,-0.0166
924.00,-0.0165
922.00,-0.0165
920.00,-0.0165
918.00,-0.0164
916.00,-0.0164
914.00,-0.0163
912.00,-0.0162
910.00,-0.0162
908.00,-0.0162
906.00,-0.0162
904.00,-0.0161
902.00,-0.0161
900.00,-0.0161
898.00,-0.0161
896.00,-0.0162
894.00,-0.0163
892.00,-0.0164
890.00,-0.0163
888.00,-0.0163
886.00,-0.0163
884.00,-0.0163
882.00,-0.0163
880.00,-0.0163
878.00,-0.0163
876.00,-0.0163
874.00,-0.0164
872.00,-0.0164
870.00,-0.0165
868.00,-0.0166
866.00,-0.0166
864.00,-0.0167
862.00,-0.0167
860.00,-0.0167
858.00,-0.0167
856.00,-0.0167
854.00,-0.0167
852.00,-0.0167
850.00,-0.0167
848.00,-0.0166
846.00,-0.0166
844.00,-0.0166
842.00,-0.0167
840.00,-0.0167
838.00,-0.0167
836.00,-0.0166
834.00,-0.0166
832.00,-0.0167
830.00,-0.0166
828.00,-0.0166
826.00,-0.0166
824.00,-0.0166
822.00,-0.0165
820.00,-0.0165
818.00,-0.0165
816.00,-0.0165
814.00,-0.0165
812.00,-0.0165
810.00,-0.0166
808.00,-0.0166
806.00,-0.0165
804.00,-0.0165
802.00,-0.0165
800.00,-0.0165
798.00,-0.0166
796.00,-0.0165
794.00,-0.0165
792.00,-0.0165
790.00,-0.0165
788.00,-0.0164
786.00,-0.0164
784.00,-0.0164
782.00,-0.0164
780.00,-0.0165
778.00,-0.0165
776.00,-0.0165
774.00,-0.0165
772.00,-0.0165
770.00,-0.0166
768.00,-0.0166
766.00,-0.0166
764.00,-0.0166
762.00,-0.0166
760.00,-0.0165
758.00,-0.0165
756.00,-0.0165
754.00,-0.0166
752.00,-0.0166
750.00,-0.0165
748.00,-0.0165
746.00,-0.0165
744.00,-0.0166
742.00,-0.0166
740.00,-0.0166
738.00,-0.0166
736.00,-0.0166
734.00,-0.0167
732.00,-0.0167
730.00,-0.0166
728.00,-0.0166
726.00,-0.0166
724.00,-0.0166
722.00,-0.0166
720.00,-0.0166
718.00,-0.0166
716.00,-0.0166
714.00,-0.0166
712.00,-0.0166
710.00,-0.0166
708.00,-0.0166
706.00,-0.0166
704.00,-0.0167
702.00,-0.0167
700.00,-0.0166
698.00,-0.0166
696.00,-0.0166
694.00,-0.0166
692.00,-0.0166
690.00,-0.0166
688.00,-0.0166
686.00,-0.0166
684.00,-0.0167
682.00,-0.0167
680.00,-0.0167
678.00,-0.0167
676.00,-0.0167
674.00,-0.0167
672.00,-0.0167
670.00,-0.0167
668.00,-0.0165
666.00,-0.0163
664.00,-0.0166
662.00,-0.0166
660.00,-0.0166
658.00,-0.0166
656.00,-0.0167
654.00,-0.0167
652.00,-0.0167
650.00,-0.0167
648.00,-0.0167
646.00,-0.0167
644.00,-0.0166
642.00,-0.0166
640.00,-0.0166
638.00,-0.0166
636.00,-0.0166
634.00,-0.0166
632.00,-0.0166
630.00,-0.0166
628.00,-0.0166
626.00,-0.0166
624.00,-0.0166
622.00,-0.0166
620.00,-0.0166
618.00,-0.0166
616.00,-0.0166
614.00,-0.0166
612.00,-0.0166
610.00,-0.0167
608.00,-0.0166
606.00,-0.0166
604.00,-0.0166
602.00,-0.0166
600.00,-0.0166
598.00,-0.0166
596.00,-0.0167
594.00,-0.0167
592.00,-0.0167
590.00,-0.0166
588.00,-0.0166
586.00,-0.0167
584.00,-0.0167
582.00,-0.0167
580.00,-0.0167
578.00,-0.0168
576.00,-0.0167
574.00,-0.0167
572.00,-0.0167
570.00,-0.0167
568.00,-0.0167
566.00,-0.0167
564.00,-0.0167
562.00,-0.0167
560.00,-0.0166
558.00,-0.0166
556.00,-0.0166
554.00,-0.0165
552.00,-0.0164
550.00,-0.0161
548.00,-0.0158
546.00,-0.0156
544.00,-0.0154
542.00,-0.0153
540.00,-0.0152
538.00,-0.0152
536.00,-0.0153
534.00,-0.0156
532.00,-0.0156
530.00,-0.0150
528.00,-0.0146
526.00,-0.0149
524.00,-0.0154
522.00,-0.0156
520.00,-0.0155
518.00,-0.0154
516.00,-0.0152
514.00,-0.0153
512.00,-0.0155
510.00,-0.0157
508.00,-0.0160
506.00,-0.0163
504.00,-0.0166
502.00,-0.0168
500.00,-0.0169
