Created as New Dataset,Sample 038 By Analyst Date Wednesday, April 02 2025
cm-1,A
4000.00,-0.0037
3998.00,-0.0037
3996.00,-0.0037
3994.00,-0.0037
3992.00,-0.0037
3990.00,-0.0037
3988.00,-0.0037
3986.00,-0.0037
3984.00,-0.0037
3982.00,-0.0037
3980.00,-0.0037
3978.00,-0.0037
3976.00,-0.0036
3974.00,-0.0036
3972.00,-0.0036
3970.00,-0.0036
3968.00,-0.0036
3966.00,-0.0036
3964.00,-0.0036
3962.00,-0.0036
3960.00,-0.0036
3958.00,-0.0036
3956.00,-0.0036
3954.00,-0.0036
3952.00,-0.0036
3950.00,-0.0035
3948.00,-0.0035
3946.00,-0.0034
3944.00,-0.0034
3942.00,-0.0034
3940.00,-0.0035
3938.00,-0.0035
3936.00,-0.0035
3934.00,-0.0035
3932.00,-0.0034
3930.00,-0.0034
3928.00,-0.0034
3926.00,-0.0035
3924.00,-0.0035
3922.00,-0.0034
3920.00,-0.0034
3918.00,-0.0033
3916.00,-0.0034
3914.00,-0.0034
3912.00,-0.0035
3910.00,-0.0035
3908.00,-0.0035
3906.00,-0.0034
3904.00,-0.0033
3902.00,-0.0032
3900.00,-0.0032
3898.00,-0.0032
3896.00,-0.0033
3894.00,-0.0034
3892.00,-0.0035
3890.00,-0.0035
3888.00,-0.0035
3886.00,-0.0034
3884.00,-0.0034
3882.00,-0.0034
3880.00,-0.0033
3878.00,-0.0034
3876.00,-0.0035
3874.00,-0.0034
3872.00,-0.0035
3870.00,-0.0035
3868.00,-0.0035
3866.00,-0.0035
3864.00,-0.0034
3862.00,-0.0035
3860.00,-0.0035
3858.00,-0.0035
3856.00,-0.0037
3854.00,-0.0039
3852.00,-0.0038
3850.00,-0.0038
3848.00,-0.0036
3846.00,-0.0035
3844.00,-0.0035
3842.00,-0.0035
3840.00,-0.0036
3838.00,-0.0037
3836.00,-0.0037
3834.00,-0.0037
3832.00,-0.0036
3830.00,-0.0036
3828.00,-0.0036
3826.00,-0.0035
3824.00,-0.0036
3822.00,-0.0037
3820.00,-0.0037
3818.00,-0.0039
3816.00,-0.0038
3814.00,-0.0037
3812.00,-0.0036
3810.00,-0.0036
3808.00,-0.0037
3806.00,-0.0037
3804.00,-0.0038
3802.00,-0.0039
3800.00,-0.0038
3798.00,-0.0038
3796.00,-0.0036
3794.00,-0.0035
3792.00,-0.0035
3790.00,-0.0034
3788.00,-0.0034
3786.00,-0.0034
3784.00,-0.0034
3782.00,-0.0035
3780.00,-0.0035
3778.00,-0.0035
3776.00,-0.0035
3774.00,-0.0035
3772.00,-0.0035
3770.00,-0.0035
3768.00,-0.0035
3766.00,-0.0035
3764.00,-0.0034
3762.00,-0.0035
3760.00,-0.0035
3758.00,-0.0035
3756.00,-0.0035
3754.00,-0.0036
3752.00,-0.0038
3750.00,-0.0038
3748.00,-0.0038
3746.00,-0.0038
3744.00,-0.0036
3742.00,-0.0035
3740.00,-0.0034
3738.00,-0.0032
3736.00,-0.0032
3734.00,-0.0032
3732.00,-0.0033
3730.00,-0.0033
3728.00,-0.0033
3726.00,-0.0032
3724.00,-0.0032
3722.00,-0.0032
3720.00,-0.0032
3718.00,-0.0033
3716.00,-0.0033
3714.00,-0.0034
3712.00,-0.0036
3710.00,-0.0036
3708.00,-0.0036
3706.00,-0.0035
3704.00,-0.0034
3702.00,-0.0034
3700.00,-0.0034
3698.00,-0.0034
3696.00,-0.0034
3694.00,-0.0034
3692.00,-0.0035
3690.00,-0.0036
3688.00,-0.0036
3686.00,-0.0036
3684.00,-0.0035
3682.00,-0.0034
3680.00,-0.0034
3678.00,-0.0036
3676.00,-0.0036
3674.00,-0.0036
3672.00,-0.0037
3670.00,-0.0036
3668.00,-0.0035
3666.00,-0.0035
3664.00,-0.0034
3662.00,-0.0034
3660.00,-0.0034
3658.00,-0.0034
3656.00,-0.0034
3654.00,-0.0034
3652.00,-0.0034
3650.00,-0.0034
3648.00,-0.0033
3646.00,-0.0033
3644.00,-0.0033
3642.00,-0.0033
3640.00,-0.0034
3638.00,-0.0034
3636.00,-0.0034
3634.00,-0.0034
3632.00,-0.0033
3630.00,-0.0033
3628.00,-0.0032
3626.00,-0.0033
3624.00,-0.0033
3622.00,-0.0032
3620.00,-0.0032
3618.00,-0.0032
3616.00,-0.0032
3614.00,-0.0032
3612.00,-0.0031
3610.00,-0.0031
3608.00,-0.0031
3606.00,-0.0032
3604.00,-0.0032
3602.00,-0.0033
3600.00,-0.0033
3598.00,-0.0033
3596.00,-0.0033
3594.00,-0.0032
3592.00,-0.0032
3590.00,-0.0031
3588.00,-0.0030
3586.00,-0.0030
3584.00,-0.0031
3582.00,-0.0032
3580.00,-0.0033
3578.00,-0.0034
3576.00,-0.0034
3574.00,-0.0034
3572.00,-0.0033
3570.00,-0.0032
3568.00,-0.0030
3566.00,-0.0029
3564.00,-0.0030
3562.00,-0.0032
3560.00,-0.0033
3558.00,-0.0034
3556.00,-0.0034
3554.00,-0.0034
3552.00,-0.0034
3550.00,-0.0033
3548.00,-0.0032
3546.00,-0.0032
3544.00,-0.0032
3542.00,-0.0033
3540.00,-0.0034
3538.00,-0.0034
3536.00,-0.0034
3534.00,-0.0034
3532.00,-0.0034
3530.00,-0.0034
3528.00,-0.0034
3526.00,-0.0033
3524.00,-0.0033
3522.00,-0.0033
3520.00,-0.0034
3518.00,-0.0035
3516.00,-0.0035
3514.00,-0.0035
3512.00,-0.0035
3510.00,-0.0034
3508.00,-0.0034
3506.00,-0.0034
3504.00,-0.0034
3502.00,-0.0034
3500.00,-0.0034
3498.00,-0.0035
3496.00,-0.0035
3494.00,-0.0035
3492.00,-0.0035
3490.00,-0.0035
3488.00,-0.0035
3486.00,-0.0035
3484.00,-0.0035
3482.00,-0.0035
3480.00,-0.0035
3478.00,-0.0036
3476.00,-0.0036
3474.00,-0.0036
3472.00,-0.0036
3470.00,-0.0036
3468.00,-0.0036
3466.00,-0.0036
3464.00,-0.0036
3462.00,-0.0036
3460.00,-0.0036
3458.00,-0.0036
3456.00,-0.0036
3454.00,-0.0036
3452.00,-0.0036
3450.00,-0.0036
3448.00,-0.0036
3446.00,-0.0036
3444.00,-0.0036
3442.00,-0.0036
3440.00,-0.0036
3438.00,-0.0036
3436.00,-0.0036
3434.00,-0.0036
3432.00,-0.0036
3430.00,-0.0036
3428.00,-0.0036
3426.00,-0.0036
3424.00,-0.0036
3422.00,-0.0035
3420.00,-0.0035
3418.00,-0.0035
3416.00,-0.0036
3414.00,-0.0036
3412.00,-0.0036
3410.00,-0.0036
3408.00,-0.0036
3406.00,-0.0036
3404.00,-0.0036
3402.00,-0.0036
3400.00,-0.0036
3398.00,-0.0036
3396.00,-0.0036
3394.00,-0.0036
3392.00,-0.0036
3390.00,-0.0036
3388.00,-0.0036
3386.00,-0.0036
3384.00,-0.0036
3382.00,-0.0036
3380.00,-0.0036
3378.00,-0.0036
3376.00,-0.0036
3374.00,-0.0036
3372.00,-0.0036
3370.00,-0.0036
3368.00,-0.0036
3366.00,-0.0036
3364.00,-0.0036
3362.00,-0.0036
3360.00,-0.0036
3358.00,-0.0036
3356.00,-0.0036
3354.00,-0.0036
3352.00,-0.0036
3350.00,-0.0036
3348.00,-0.0036
3346.00,-0.0036
3344.00,-0.0036
3342.00,-0.0036
3340.00,-0.0036
3338.00,-0.0036
3336.00,-0.0036
3334.00,-0.0036
3332.00,-0.0036
3330.00,-0.0036
3328.00,-0.0036
3326.00,-0.0036
3324.00,-0.0036
3322.00,-0.0036
3320.00,-0.0036
3318.00,-0.0036
3316.00,-0.0036
3314.00,-0.0036
3312.00,-0.0036
3310.00,-0.0036
3308.00,-0.0036
3306.00,-0.0036
3304.00,-0.0036
3302.00,-0.0036
3300.00,-0.0036
3298.00,-0.0036
3296.00,-0.0036
3294.00,-0.0036
3292.00,-0.0035
3290.00,-0.0036
3288.00,-0.0036
3286.00,-0.0036
3284.00,-0.0036
3282.00,-0.0036
3280.00,-0.0036
3278.00,-0.0036
3276.00,-0.0036
3274.00,-0.0036
3272.00,-0.0036
3270.00,-0.0036
3268.00,-0.0036
3266.00,-0.0036
3264.00,-0.0036
3262.00,-0.0036
3260.00,-0.0036
3258.00,-0.0036
3256.00,-0.0036
3254.00,-0.0036
3252.00,-0.0036
3250.00,-0.0036
3248.00,-0.0036
3246.00,-0.0036
3244.00,-0.0036
3242.00,-0.0036
3240.00,-0.0036
3238.00,-0.0036
3236.00,-0.0036
3234.00,-0.0036
3232.00,-0.0036
3230.00,-0.0036
3228.00,-0.0035
3226.00,-0.0035
3224.00,-0.0035
3222.00,-0.0035
3220.00,-0.0036
3218.00,-0.0035
3216.00,-0.0036
3214.00,-0.0035
3212.00,-0.0035
3210.00,-0.0036
3208.00,-0.0036
3206.00,-0.0035
3204.00,-0.0035
3202.00,-0.0035
3200.00,-0.0035
3198.00,-0.0035
3196.00,-0.0035
3194.00,-0.0035
3192.00,-0.0035
3190.00,-0.0035
3188.00,-0.0035
3186.00,-0.0035
3184.00,-0.0035
3182.00,-0.0035
3180.00,-0.0035
3178.00,-0.0035
3176.00,-0.0035
3174.00,-0.0035
3172.00,-0.0035
3170.00,-0.0035
3168.00,-0.0035
3166.00,-0.0035
3164.00,-0.0035
3162.00,-0.0035
3160.00,-0.0035
3158.00,-0.0035
3156.00,-0.0035
3154.00,-0.0035
3152.00,-0.0035
3150.00,-0.0035
3148.00,-0.0035
3146.00,-0.0035
3144.00,-0.0035
3142.00,-0.0035
3140.00,-0.0035
3138.00,-0.0035
3136.00,-0.0035
3134.00,-0.0035
3132.00,-0.0035
3130.00,-0.0035
3128.00,-0.0035
3126.00,-0.0035
3124.00,-0.0035
3122.00,-0.0035
3120.00,-0.0035
3118.00,-0.0035
3116.00,-0.0035
3114.00,-0.0035
3112.00,-0.0035
3110.00,-0.0035
3108.00,-0.0035
3106.00,-0.0035
3104.00,-0.0035
3102.00,-0.0035
3100.00,-0.0035
3098.00,-0.0035
3096.00,-0.0035
3094.00,-0.0035
3092.00,-0.0035
3090.00,-0.0035
3088.00,-0.0035
3086.00,-0.0035
3084.00,-0.0035
3082.00,-0.0035
3080.00,-0.0035
3078.00,-0.0035
3076.00,-0.0035
3074.00,-0.0035
3072.00,-0.0034
3070.00,-0.0034
3068.00,-0.0034
3066.00,-0.0034
3064.00,-0.0035
3062.00,-0.0034
3060.00,-0.0034
3058.00,-0.0034
3056.00,-0.0034
3054.00,-0.0034
3052.00,-0.0034
3050.00,-0.0034
3048.00,-0.0034
3046.00,-0.0034
3044.00,-0.0034
3042.00,-0.0034
3040.00,-0.0034
3038.00,-0.0034
3036.00,-0.0034
3034.00,-0.0034
3032.00,-0.0034
3030.00,-0.0034
3028.00,-0.0034
3026.00,-0.0034
3024.00,-0.0034
3022.00,-0.0034
3020.00,-0.0034
3018.00,-0.0034
3016.00,-0.0034
3014.00,-0.0034
3012.00,-0.0034
3010.00,-0.0034
3008.00,-0.0034
3006.00,-0.0034
3004.00,-0.0034
3002.00,-0.0034
3000.00,-0.0034
2998.00,-0.0034
2996.00,-0.0034
2994.00,-0.0033
2992.00,-0.0033
2990.00,-0.0033
2988.00,-0.0033
2986.00,-0.0033
2984.00,-0.0033
2982.00,-0.0033
2980.00,-0.0033
2978.00,-0.0033
2976.00,-0.0033
2974.00,-0.0033
2972.00,-0.0033
2970.00,-0.0033
2968.00,-0.0033
2966.00,-0.0033
2964.00,-0.0033
2962.00,-0.0033
2960.00,-0.0033
2958.00,-0.0033
2956.00,-0.0033
2954.00,-0.0033
2952.00,-0.0033
2950.00,-0.0033
2948.00,-0.0032
2946.00,-0.0032
2944.00,-0.0032
2942.00,-0.0032
2940.00,-0.0032
2938.00,-0.0032
2936.00,-0.0032
2934.00,-0.0032
2932.00,-0.0032
2930.00,-0.0033
2928.00,-0.0033
2926.00,-0.0033
2924.00,-0.0033
2922.00,-0.0034
2920.00,-0.0034
2918.00,-0.0033
2916.00,-0.0033
2914.00,-0.0033
2912.00,-0.0033
2910.00,-0.0033
2908.00,-0.0033
2906.00,-0.0033
2904.00,-0.0033
2902.00,-0.0033
2900.00,-0.0033
2898.00,-0.0033
2896.00,-0.0033
2894.00,-0.0033
2892.00,-0.0033
2890.00,-0.0033
2888.00,-0.0033
2886.00,-0.0033
2884.00,-0.0033
2882.00,-0.0033
2880.00,-0.0033
2878.00,-0.0033
2876.00,-0.0033
2874.00,-0.0033
2872.00,-0.0033
2870.00,-0.0033
2868.00,-0.0033
2866.00,-0.0033
2864.00,-0.0033
2862.00,-0.0033
2860.00,-0.0033
2858.00,-0.0033
2856.00,-0.0034
2854.00,-0.0034
2852.00,-0.0034
2850.00,-0.0034
2848.00,-0.0034
2846.00,-0.0034
2844.00,-0.0033
2842.00,-0.0033
2840.00,-0.0033
2838.00,-0.0033
2836.00,-0.0033
2834.00,-0.0033
2832.00,-0.0033
2830.00,-0.0033
2828.00,-0.0033
2826.00,-0.0033
2824.00,-0.0033
2822.00,-0.0033
2820.00,-0.0033
2818.00,-0.0033
2816.00,-0.0033
2814.00,-0.0033
2812.00,-0.0033
2810.00,-0.0033
2808.00,-0.0033
2806.00,-0.0033
2804.00,-0.0033
2802.00,-0.0033
2800.00,-0.0033
2798.00,-0.0033
2796.00,-0.0033
2794.00,-0.0033
2792.00,-0.0033
2790.00,-0.0033
2788.00,-0.0033
2786.00,-0.0033
2784.00,-0.0033
2782.00,-0.0033
2780.00,-0.0033
2778.00,-0.0033
2776.00,-0.0033
2774.00,-0.0033
2772.00,-0.0033
2770.00,-0.0033
2768.00,-0.0033
2766.00,-0.0033
2764.00,-0.0033
2762.00,-0.0033
2760.00,-0.0033
2758.00,-0.0033
2756.00,-0.0033
2754.00,-0.0033
2752.00,-0.0033
2750.00,-0.0033
2748.00,-0.0033
2746.00,-0.0033
2744.00,-0.0033
2742.00,-0.0033
2740.00,-0.0033
2738.00,-0.0033
2736.00,-0.0033
2734.00,-0.0033
2732.00,-0.0033
2730.00,-0.0033
2728.00,-0.0033
2726.00,-0.0033
2724.00,-0.0033
2722.00,-0.0033
2720.00,-0.0033
2718.00,-0.0033
2716.00,-0.0033
2714.00,-0.0033
2712.00,-0.0033
2710.00,-0.0033
2708.00,-0.0033
2706.00,-0.0033
2704.00,-0.0033
2702.00,-0.0033
2700.00,-0.0033
2698.00,-0.0033
2696.00,-0.0033
2694.00,-0.0033
2692.00,-0.0033
2690.00,-0.0033
2688.00,-0.0033
2686.00,-0.0033
2684.00,-0.0033
2682.00,-0.0033
2680.00,-0.0033
2678.00,-0.0033
2676.00,-0.0033
2674.00,-0.0033
2672.00,-0.0033
2670.00,-0.0033
2668.00,-0.0033
2666.00,-0.0033
2664.00,-0.0033
2662.00,-0.0033
2660.00,-0.0033
2658.00,-0.0033
2656.00,-0.0033
2654.00,-0.0033
2652.00,-0.0033
2650.00,-0.0033
2648.00,-0.0033
2646.00,-0.0033
2644.00,-0.0033
2642.00,-0.0033
2640.00,-0.0033
2638.00,-0.0033
2636.00,-0.0033
2634.00,-0.0033
2632.00,-0.0033
2630.00,-0.0033
2628.00,-0.0033
2626.00,-0.0033
2624.00,-0.0033
2622.00,-0.0033
2620.00,-0.0033
2618.00,-0.0033
2616.00,-0.0033
2614.00,-0.0033
2612.00,-0.0033
2610.00,-0.0033
2608.00,-0.0033
2606.00,-0.0033
2604.00,-0.0033
2602.00,-0.0033
2600.00,-0.0033
2598.00,-0.0033
2596.00,-0.0033
2594.00,-0.0033
2592.00,-0.0033
2590.00,-0.0033
2588.00,-0.0033
2586.00,-0.0033
2584.00,-0.0033
2582.00,-0.0033
2580.00,-0.0033
2578.00,-0.0033
2576.00,-0.0033
2574.00,-0.0033
2572.00,-0.0033
2570.00,-0.0033
2568.00,-0.0033
2566.00,-0.0033
2564.00,-0.0033
2562.00,-0.0033
2560.00,-0.0033
2558.00,-0.0033
2556.00,-0.0033
2554.00,-0.0033
2552.00,-0.0033
2550.00,-0.0033
2548.00,-0.0033
2546.00,-0.0033
2544.00,-0.0033
2542.00,-0.0033
2540.00,-0.0033
2538.00,-0.0033
2536.00,-0.0033
2534.00,-0.0033
2532.00,-0.0033
2530.00,-0.0033
2528.00,-0.0033
2526.00,-0.0033
2524.00,-0.0033
2522.00,-0.0033
2520.00,-0.0033
2518.00,-0.0033
2516.00,-0.0033
2514.00,-0.0033
2512.00,-0.0033
2510.00,-0.0033
2508.00,-0.0033
2506.00,-0.0033
2504.00,-0.0033
2502.00,-0.0033
2500.00,-0.0033
2498.00,-0.0033
2496.00,-0.0033
2494.00,-0.0033
2492.00,-0.0033
2490.00,-0.0033
2488.00,-0.0033
2486.00,-0.0033
2484.00,-0.0033
2482.00,-0.0033
2480.00,-0.0033
2478.00,-0.0033
2476.00,-0.0033
2474.00,-0.0033
2472.00,-0.0033
2470.00,-0.0033
2468.00,-0.0033
2466.00,-0.0033
2464.00,-0.0033
2462.00,-0.0033
2460.00,-0.0033
2458.00,-0.0033
2456.00,-0.0033
2454.00,-0.0033
2452.00,-0.0033
2450.00,-0.0033
2448.00,-0.0033
2446.00,-0.0033
2444.00,-0.0033
2442.00,-0.0033
2440.00,-0.0033
2438.00,-0.0033
2436.00,-0.0033
2434.00,-0.0033
2432.00,-0.0033
2430.00,-0.0033
2428.00,-0.0033
2426.00,-0.0033
2424.00,-0.0033
2422.00,-0.0033
2420.00,-0.0032
2418.00,-0.0032
2416.00,-0.0033
2414.00,-0.0033
2412.00,-0.0033
2410.00,-0.0033
2408.00,-0.0033
2406.00,-0.0033
2404.00,-0.0033
2402.00,-0.0033
2400.00,-0.0033
2398.00,-0.0033
2396.00,-0.0033
2394.00,-0.0033
2392.00,-0.0033
2390.00,-0.0033
2388.00,-0.0033
2386.00,-0.0033
2384.00,-0.0033
2382.00,-0.0033
2380.00,-0.0033
2378.00,-0.0032
2376.00,-0.0032
2374.00,-0.0032
2372.00,-0.0033
2370.00,-0.0033
2368.00,-0.0032
2366.00,-0.0032
2364.00,-0.0032
2362.00,-0.0032
2360.00,-0.0033
2358.00,-0.0033
2356.00,-0.0032
2354.00,-0.0030
2352.00,-0.0028
2350.00,-0.0027
2348.00,-0.0031
2346.00,-0.0032
2344.00,-0.0032
2342.00,-0.0033
2340.00,-0.0033
2338.00,-0.0033
2336.00,-0.0032
2334.00,-0.0032
2332.00,-0.0032
2330.00,-0.0033
2328.00,-0.0033
2326.00,-0.0034
2324.00,-0.0034
2322.00,-0.0033
2320.00,-0.0034
2318.00,-0.0034
2316.00,-0.0035
2314.00,-0.0034
2312.00,-0.0034
2310.00,-0.0034
2308.00,-0.0034
2306.00,-0.0034
2304.00,-0.0034
2302.00,-0.0034
2300.00,-0.0034
2298.00,-0.0034
2296.00,-0.0033
2294.00,-0.0033
2292.00,-0.0033
2290.00,-0.0033
2288.00,-0.0033
2286.00,-0.0033
2284.00,-0.0033
2282.00,-0.0033
2280.00,-0.0033
2278.00,-0.0033
2276.00,-0.0033
2274.00,-0.0033
2272.00,-0.0033
2270.00,-0.0033
2268.00,-0.0033
2266.00,-0.0033
2264.00,-0.0033
2262.00,-0.0033
2260.00,-0.0033
2258.00,-0.0033
2256.00,-0.0033
2254.00,-0.0033
2252.00,-0.0033
2250.00,-0.0033
2248.00,-0.0033
2246.00,-0.0033
2244.00,-0.0033
2242.00,-0.0033
2240.00,-0.0033
2238.00,-0.0033
2236.00,-0.0033
2234.00,-0.0033
2232.00,-0.0033
2230.00,-0.0033
2228.00,-0.0033
2226.00,-0.0033
2224.00,-0.0033
2222.00,-0.0033
2220.00,-0.0033
2218.00,-0.0033
2216.00,-0.0033
2214.00,-0.0033
2212.00,-0.0033
2210.00,-0.0033
2208.00,-0.0033
2206.00,-0.0033
2204.00,-0.0033
2202.00,-0.0033
2200.00,-0.0033
2198.00,-0.0033
2196.00,-0.0033
2194.00,-0.0033
2192.00,-0.0033
2190.00,-0.0033
2188.00,-0.0033
2186.00,-0.0033
2184.00,-0.0033
2182.00,-0.0033
2180.00,-0.0033
2178.00,-0.0033
2176.00,-0.0033
2174.00,-0.0033
2172.00,-0.0033
2170.00,-0.0033
2168.00,-0.0033
2166.00,-0.0033
2164.00,-0.0033
2162.00,-0.0033
2160.00,-0.0033
2158.00,-0.0033
2156.00,-0.0033
2154.00,-0.0033
2152.00,-0.0033
2150.00,-0.0033
2148.00,-0.0033
2146.00,-0.0033
2144.00,-0.0033
2142.00,-0.0033
2140.00,-0.0033
2138.00,-0.0033
2136.00,-0.0033
2134.00,-0.0033
2132.00,-0.0033
2130.00,-0.0033
2128.00,-0.0033
2126.00,-0.0033
2124.00,-0.0033
2122.00,-0.0033
2120.00,-0.0033
2118.00,-0.0033
2116.00,-0.0033
2114.00,-0.0033
2112.00,-0.0033
2110.00,-0.0033
2108.00,-0.0033
2106.00,-0.0033
2104.00,-0.0033
2102.00,-0.0033
2100.00,-0.0033
2098.00,-0.0033
2096.00,-0.0033
2094.00,-0.0033
2092.00,-0.0033
2090.00,-0.0033
2088.00,-0.0033
2086.00,-0.0033
2084.00,-0.0033
2082.00,-0.0033
2080.00,-0.0033
2078.00,-0.0033
2076.00,-0.0033
2074.00,-0.0033
2072.00,-0.0032
2070.00,-0.0033
2068.00,-0.0033
2066.00,-0.0033
2064.00,-0.0033
2062.00,-0.0033
2060.00,-0.0033
2058.00,-0.0033
2056.00,-0.0033
2054.00,-0.0033
2052.00,-0.0033
2050.00,-0.0033
2048.00,-0.0032
2046.00,-0.0033
2044.00,-0.0033
2042.00,-0.0033
2040.00,-0.0033
2038.00,-0.0033
2036.00,-0.0033
2034.00,-0.0033
2032.00,-0.0033
2030.00,-0.0033
2028.00,-0.0033
2026.00,-0.0033
2024.00,-0.0033
2022.00,-0.0032
2020.00,-0.0032
2018.00,-0.0032
2016.00,-0.0033
2014.00,-0.0033
2012.00,-0.0033
2010.00,-0.0033
2008.00,-0.0033
2006.00,-0.0033
2004.00,-0.0033
2002.00,-0.0033
2000.00,-0.0033
1998.00,-0.0033
1996.00,-0.0033
1994.00,-0.0033
1992.00,-0.0033
1990.00,-0.0033
1988.00,-0.0033
1986.00,-0.0033
1984.00,-0.0033
1982.00,-0.0033
1980.00,-0.0033
1978.00,-0.0033
1976.00,-0.0033
1974.00,-0.0033
1972.00,-0.0033
1970.00,-0.0033
1968.00,-0.0033
1966.00,-0.0033
1964.00,-0.0032
1962.00,-0.0033
1960.00,-0.0033
1958.00,-0.0033
1956.00,-0.0032
1954.00,-0.0032
1952.00,-0.0032
1950.00,-0.0032
1948.00,-0.0032
1946.00,-0.0032
1944.00,-0.0032
1942.00,-0.0033
1940.00,-0.0032
1938.00,-0.0033
1936.00,-0.0033
1934.00,-0.0033
1932.00,-0.0032
1930.00,-0.0032
1928.00,-0.0032
1926.00,-0.0032
1924.00,-0.0033
1922.00,-0.0033
1920.00,-0.0032
1918.00,-0.0032
1916.00,-0.0032
1914.00,-0.0033
1912.00,-0.0033
1910.00,-0.0033
1908.00,-0.0033
1906.00,-0.0033
1904.00,-0.0033
1902.00,-0.0033
1900.00,-0.0033
1898.00,-0.0033
1896.00,-0.0033
1894.00,-0.0033
1892.00,-0.0032
1890.00,-0.0032
1888.00,-0.0032
1886.00,-0.0033
1884.00,-0.0033
1882.00,-0.0033
1880.00,-0.0033
1878.00,-0.0033
1876.00,-0.0033
1874.00,-0.0033
1872.00,-0.0033
1870.00,-0.0032
1868.00,-0.0033
1866.00,-0.0033
1864.00,-0.0033
1862.00,-0.0033
1860.00,-0.0033
1858.00,-0.0033
1856.00,-0.0032
1854.00,-0.0032
1852.00,-0.0032
1850.00,-0.0032
1848.00,-0.0033
1846.00,-0.0033
1844.00,-0.0032
1842.00,-0.0033
1840.00,-0.0033
1838.00,-0.0033
1836.00,-0.0033
1834.00,-0.0033
1832.00,-0.0032
1830.00,-0.0032
1828.00,-0.0033
1826.00,-0.0033
1824.00,-0.0033
1822.00,-0.0033
1820.00,-0.0033
1818.00,-0.0033
1816.00,-0.0033
1814.00,-0.0033
1812.00,-0.0033
1810.00,-0.0033
1808.00,-0.0033
1806.00,-0.0033
1804.00,-0.0033
1802.00,-0.0033
1800.00,-0.0032
1798.00,-0.0034
1796.00,-0.0036
1794.00,-0.0039
1792.00,-0.0042
1790.00,-0.0037
1788.00,-0.0033
1786.00,-0.0032
1784.00,-0.0032
1782.00,-0.0033
1780.00,-0.0033
1778.00,-0.0033
1776.00,-0.0032
1774.00,-0.0032
1772.00,-0.0032
1770.00,-0.0032
1768.00,-0.0032
1766.00,-0.0032
1764.00,-0.0032
1762.00,-0.0032
1760.00,-0.0032
1758.00,-0.0032
1756.00,-0.0033
1754.00,-0.0032
1752.00,-0.0032
1750.00,-0.0032
1748.00,-0.0033
1746.00,-0.0032
1744.00,-0.0033
1742.00,-0.0033
1740.00,-0.0033
1738.00,-0.0032
1736.00,-0.0032
1734.00,-0.0032
1732.00,-0.0032
1730.00,-0.0033
1728.00,-0.0033
1726.00,-0.0033
1724.00,-0.0033
1722.00,-0.0033
1720.00,-0.0032
1718.00,-0.0032
1716.00,-0.0032
1714.00,-0.0033
1712.00,-0.0033
1710.00,-0.0033
1708.00,-0.0033
1706.00,-0.0033
1704.00,-0.0033
1702.00,-0.0033
1700.00,-0.0033
1698.00,-0.0033
1696.00,-0.0033
1694.00,-0.0033
1692.00,-0.0033
1690.00,-0.0033
1688.00,-0.0033
1686.00,-0.0033
1684.00,-0.0033
1682.00,-0.0033
1680.00,-0.0033
1678.00,-0.0033
1676.00,-0.0033
1674.00,-0.0032
1672.00,-0.0032
1670.00,-0.0033
1668.00,-0.0033
1666.00,-0.0033
1664.00,-0.0033
1662.00,-0.0033
1660.00,-0.0033
1658.00,-0.0033
1656.00,-0.0033
1654.00,-0.0034
1652.00,-0.0033
1650.00,-0.0033
1648.00,-0.0033
1646.00,-0.0033
1644.00,-0.0033
1642.00,-0.0033
1640.00,-0.0033
1638.00,-0.0033
1636.00,-0.0033
1634.00,-0.0033
1632.00,-0.0033
1630.00,-0.0033
1628.00,-0.0033
1626.00,-0.0033
1624.00,-0.0033
1622.00,-0.0033
1620.00,-0.0034
1618.00,-0.0034
1616.00,-0.0033
1614.00,-0.0033
1612.00,-0.0033
1610.00,-0.0033
1608.00,-0.0033
1606.00,-0.0033
1604.00,-0.0033
1602.00,-0.0033
1600.00,-0.0033
1598.00,-0.0033
1596.00,-0.0033
1594.00,-0.0033
1592.00,-0.0033
1590.00,-0.0033
1588.00,-0.0033
1586.00,-0.0033
1584.00,-0.0033
1582.00,-0.0033
1580.00,-0.0033
1578.00,-0.0033
1576.00,-0.0033
1574.00,-0.0033
1572.00,-0.0033
1570.00,-0.0033
1568.00,-0.0033
1566.00,-0.0033
1564.00,-0.0033
1562.00,-0.0033
1560.00,-0.0033
1558.00,-0.0033
1556.00,-0.0033
1554.00,-0.0033
1552.00,-0.0033
1550.00,-0.0033
1548.00,-0.0033
1546.00,-0.0032
1544.00,-0.0033
1542.00,-0.0033
1540.00,-0.0033
1538.00,-0.0033
1536.00,-0.0033
1534.00,-0.0032
1532.00,-0.0033
1530.00,-0.0032
1528.00,-0.0032
1526.00,-0.0033
1524.00,-0.0032
1522.00,-0.0032
1520.00,-0.0032
1518.00,-0.0032
1516.00,-0.0032
1514.00,-0.0032
1512.00,-0.0032
1510.00,-0.0033
1508.00,-0.0034
1506.00,-0.0033
1504.00,-0.0032
1502.00,-0.0033
1500.00,-0.0033
1498.00,-0.0033
1496.00,-0.0033
1494.00,-0.0033
1492.00,-0.0032
1490.00,-0.0032
1488.00,-0.0032
1486.00,-0.0032
1484.00,-0.0032
1482.00,-0.0032
1480.00,-0.0032
1478.00,-0.0032
1476.00,-0.0032
1474.00,-0.0032
1472.00,-0.0033
1470.00,-0.0033
1468.00,-0.0033
1466.00,-0.0033
1464.00,-0.0033
1462.00,-0.0032
1460.00,-0.0032
1458.00,-0.0032
1456.00,-0.0032
1454.00,-0.0033
1452.00,-0.0033
1450.00,-0.0033
1448.00,-0.0032
1446.00,-0.0032
1444.00,-0.0032
1442.00,-0.0032
1440.00,-0.0032
1438.00,-0.0032
1436.00,-0.0032
1434.00,-0.0032
1432.00,-0.0033
1430.00,-0.0033
1428.00,-0.0032
1426.00,-0.0032
1424.00,-0.0032
1422.00,-0.0032
1420.00,-0.0032
1418.00,-0.0033
1416.00,-0.0033
1414.00,-0.0033
1412.00,-0.0033
1410.00,-0.0033
1408.00,-0.0033
1406.00,-0.0033
1404.00,-0.0033
1402.00,-0.0033
1400.00,-0.0033
1398.00,-0.0033
1396.00,-0.0032
1394.00,-0.0032
1392.00,-0.0032
1390.00,-0.0032
1388.00,-0.0033
1386.00,-0.0033
1384.00,-0.0033
1382.00,-0.0033
1380.00,-0.0032
1378.00,-0.0032
1376.00,-0.0032
1374.00,-0.0033
1372.00,-0.0033
1370.00,-0.0033
1368.00,-0.0033
1366.00,-0.0033
1364.00,-0.0033
1362.00,-0.0033
1360.00,-0.0033
1358.00,-0.0033
1356.00,-0.0033
1354.00,-0.0033
1352.00,-0.0033
1350.00,-0.0033
1348.00,-0.0033
1346.00,-0.0033
1344.00,-0.0033
1342.00,-0.0033
1340.00,-0.0034
1338.00,-0.0034
1336.00,-0.0033
1334.00,-0.0033
1332.00,-0.0033
1330.00,-0.0033
1328.00,-0.0033
1326.00,-0.0033
1324.00,-0.0033
1322.00,-0.0033
1320.00,-0.0033
1318.00,-0.0033
1316.00,-0.0033
1314.00,-0.0033
1312.00,-0.0033
1310.00,-0.0033
1308.00,-0.0033
1306.00,-0.0033
1304.00,-0.0033
1302.00,-0.0033
1300.00,-0.0033
1298.00,-0.0033
1296.00,-0.0033
1294.00,-0.0033
1292.00,-0.0033
1290.00,-0.0033
1288.00,-0.0033
1286.00,-0.0033
1284.00,-0.0033
1282.00,-0.0033
1280.00,-0.0033
1278.00,-0.0033
1276.00,-0.0033
1274.00,-0.0033
1272.00,-0.0033
1270.00,-0.0033
1268.00,-0.0033
1266.00,-0.0034
1264.00,-0.0034
1262.00,-0.0034
1260.00,-0.0034
1258.00,-0.0034
1256.00,-0.0035
1254.00,-0.0035
1252.00,-0.0035
1250.00,-0.0035
1248.00,-0.0035
1246.00,-0.0035
1244.00,-0.0035
1242.00,-0.0035
1240.00,-0.0034
1238.00,-0.0034
1236.00,-0.0034
1234.00,-0.0033
1232.00,-0.0033
1230.00,-0.0033
1228.00,-0.0033
1226.00,-0.0033
1224.00,-0.0033
1222.00,-0.0033
1220.00,-0.0033
1218.00,-0.0034
1216.00,-0.0034
1214.00,-0.0034
1212.00,-0.0034
1210.00,-0.0034
1208.00,-0.0034
1206.00,-0.0034
1204.00,-0.0034
1202.00,-0.0034
1200.00,-0.0034
1198.00,-0.0034
1196.00,-0.0034
1194.00,-0.0034
1192.00,-0.0034
1190.00,-0.0034
1188.00,-0.0034
1186.00,-0.0034
1184.00,-0.0034
1182.00,-0.0034
1180.00,-0.0034
1178.00,-0.0034
1176.00,-0.0034
1174.00,-0.0034
1172.00,-0.0034
1170.00,-0.0034
1168.00,-0.0034
1166.00,-0.0034
1164.00,-0.0034
1162.00,-0.0034
1160.00,-0.0034
1158.00,-0.0035
1156.00,-0.0035
1154.00,-0.0035
1152.00,-0.0035
1150.00,-0.0035
1148.00,-0.0035
1146.00,-0.0035
1144.00,-0.0035
1142.00,-0.0034
1140.00,-0.0034
1138.00,-0.0035
1136.00,-0.0035
1134.00,-0.0035
1132.00,-0.0035
1130.00,-0.0035
1128.00,-0.0035
1126.00,-0.0035
1124.00,-0.0035
1122.00,-0.0035
1120.00,-0.0035
1118.00,-0.0035
1116.00,-0.0035
1114.00,-0.0035
1112.00,-0.0035
1110.00,-0.0035
1108.00,-0.0035
1106.00,-0.0035
1104.00,-0.0035
1102.00,-0.0035
1100.00,-0.0035
1098.00,-0.0035
1096.00,-0.0034
1094.00,-0.0034
1092.00,-0.0035
1090.00,-0.0035
1088.00,-0.0035
1086.00,-0.0035
1084.00,-0.0035
1082.00,-0.0035
1080.00,-0.0034
1078.00,-0.0034
1076.00,-0.0034
1074.00,-0.0034
1072.00,-0.0034
1070.00,-0.0034
1068.00,-0.0034
1066.00,-0.0034
1064.00,-0.0034
1062.00,-0.0034
1060.00,-0.0034
1058.00,-0.0034
1056.00,-0.0034
1054.00,-0.0034
1052.00,-0.0034
1050.00,-0.0034
1048.00,-0.0033
1046.00,-0.0033
1044.00,-0.0033
1042.00,-0.0033
1040.00,-0.0033
1038.00,-0.0033
1036.00,-0.0033
1034.00,-0.0034
1032.00,-0.0033
1030.00,-0.0033
1028.00,-0.0033
1026.00,-0.0033
1024.00,-0.0033
1022.00,-0.0033
1020.00,-0.0033
1018.00,-0.0033
1016.00,-0.0033
1014.00,-0.0033
1012.00,-0.0033
1010.00,-0.0033
1008.00,-0.0033
1006.00,-0.0033
1004.00,-0.0033
1002.00,-0.0033
1000.00,-0.0033
998.00,-0.0033
996.00,-0.0033
994.00,-0.0033
992.00,-0.0033
990.00,-0.0033
988.00,-0.0033
986.00,-0.0033
984.00,-0.0034
982.00,-0.0034
980.00,-0.0034
978.00,-0.0034
976.00,-0.0033
974.00,-0.0034
972.00,-0.0034
970.00,-0.0034
968.00,-0.0034
966.00,-0.0034
964.00,-0.0034
962.00,-0.0034
960.00,-0.0034
958.00,-0.0035
956.00,-0.0035
954.00,-0.0035
952.00,-0.0035
950.00,-0.0035
948.00,-0.0035
946.00,-0.0035
944.00,-0.0035
942.00,-0.0035
940.00,-0.0035
938.00,-0.0035
936.00,-0.0035
934.00,-0.0036
932.00,-0.0036
930.00,-0.0036
928.00,-0.0036
926.00,-0.0036
924.00,-0.0036
922.00,-0.0036
920.00,-0.0036
918.00,-0.0036
916.00,-0.0036
914.00,-0.0036
912.00,-0.0036
910.00,-0.0036
908.00,-0.0036
906.00,-0.0036
904.00,-0.0036
902.00,-0.0036
900.00,-0.0036
898.00,-0.0036
896.00,-0.0036
894.00,-0.0035
892.00,-0.0035
890.00,-0.0036
888.00,-0.0036
886.00,-0.0036
884.00,-0.0036
882.00,-0.0036
880.00,-0.0036
878.00,-0.0035
876.00,-0.0035
874.00,-0.0035
872.00,-0.0035
870.00,-0.0035
868.00,-0.0035
866.00,-0.0035
864.00,-0.0035
862.00,-0.0035
860.00,-0.0035
858.00,-0.0035
856.00,-0.0035
854.00,-0.0035
852.00,-0.0035
850.00,-0.0035
848.00,-0.0035
846.00,-0.0035
844.00,-0.0035
842.00,-0.0035
840.00,-0.0035
838.00,-0.0035
836.00,-0.0035
834.00,-0.0035
832.00,-0.0036
830.00,-0.0036
828.00,-0.0036
826.00,-0.0036
824.00,-0.0036
822.00,-0.0036
820.00,-0.0035
818.00,-0.0035
816.00,-0.0035
814.00,-0.0035
812.00,-0.0035
810.00,-0.0035
808.00,-0.0035
806.00,-0.0035
804.00,-0.0036
802.00,-0.0036
800.00,-0.0036
798.00,-0.0036
796.00,-0.0035
794.00,-0.0035
792.00,-0.0035
790.00,-0.0035
788.00,-0.0035
786.00,-0.0035
784.00,-0.0035
782.00,-0.0035
780.00,-0.0035
778.00,-0.0035
776.00,-0.0035
774.00,-0.0034
772.00,-0.0035
770.00,-0.0035
768.00,-0.0035
766.00,-0.0035
764.00,-0.0035
762.00,-0.0035
760.00,-0.0035
758.00,-0.0035
756.00,-0.0035
754.00,-0.0035
752.00,-0.0035
750.00,-0.0035
748.00,-0.0035
746.00,-0.0035
744.00,-0.0035
742.00,-0.0035
740.00,-0.0035
738.00,-0.0035
736.00,-0.0035
734.00,-0.0035
732.00,-0.0035
730.00,-0.0035
728.00,-0.0035
726.00,-0.0035
724.00,-0.0035
722.00,-0.0035
720.00,-0.0035
718.00,-0.0035
716.00,-0.0035
714.00,-0.0035
712.00,-0.0035
710.00,-0.0035
708.00,-0.0035
706.00,-0.0035
704.00,-0.0035
702.00,-0.0035
700.00,-0.0035
698.00,-0.0036
696.00,-0.0035
694.00,-0.0035
692.00,-0.0035
690.00,-0.0035
688.00,-0.0035
686.00,-0.0035
684.00,-0.0034
682.00,-0.0034
680.00,-0.0034
678.00,-0.0035
676.00,-0.0035
674.00,-0.0035
672.00,-0.0033
670.00,-0.0025
668.00,-0.0010
666.00,-0.0021
664.00,-0.0032
662.00,-0.0035
660.00,-0.0035
658.00,-0.0035
656.00,-0.0035
654.00,-0.0035
652.00,-0.0035
650.00,-0.0035
648.00,-0.0035
646.00,-0.0035
644.00,-0.0036
642.00,-0.0036
640.00,-0.0036
638.00,-0.0035
636.00,-0.0036
634.00,-0.0036
632.00,-0.0036
630.00,-0.0036
628.00,-0.0036
626.00,-0.0036
624.00,-0.0036
622.00,-0.0036
620.00,-0.0036
618.00,-0.0036
616.00,-0.0036
614.00,-0.0037
612.00,-0.0037
610.00,-0.0036
608.00,-0.0037
606.00,-0.0037
604.00,-0.0037
602.00,-0.0037
600.00,-0.0037
598.00,-0.0037
596.00,-0.0036
594.00,-0.0035
592.00,-0.0035
590.00,-0.0036
588.00,-0.0036
586.00,-0.0037
584.00,-0.0037
582.00,-0.0037
580.00,-0.0036
578.00,-0.0036
576.00,-0.0037
574.00,-0.0037
572.00,-0.0038
570.00,-0.0038
568.00,-0.0037
566.00,-0.0037
564.00,-0.0037
562.00,-0.0036
560.00,-0.0036
558.00,-0.0036
556.00,-0.0035
554.00,-0.0036
552.00,-0.0037
550.00,-0.0036
548.00,-0.0036
546.00,-0.0037
544.00,-0.0037
542.00,-0.0037
540.00,-0.0037
538.00,-0.0036
536.00,-0.0035
534.00,-0.0035
532.00,-0.0036
530.00,-0.0037
528.00,-0.0037
526.00,-0.0038
524.00,-0.0038
522.00,-0.0038
520.00,-0.0038
518.00,-0.0037
516.00,-0.0036
514.00,-0.0036
512.00,-0.0037
510.00,-0.0037
508.00,-0.0037
506.00,-0.0038
504.00,-0.0038
502.00,-0.0040
500.00,-0.0041
