Created as New Dataset,Sample 023 By Analyst Date Friday, March 28 2025
cm-1,A
4000.00,0.0124
3999.00,0.0124
3998.00,0.0124
3997.00,0.0124
3996.00,0.0124
3995.00,0.0124
3994.00,0.0124
3993.00,0.0124
3992.00,0.0124
3991.00,0.0124
3990.00,0.0124
3989.00,0.0124
3988.00,0.0124
3987.00,0.0124
3986.00,0.0124
3985.00,0.0124
3984.00,0.0124
3983.00,0.0124
3982.00,0.0124
3981.00,0.0124
3980.00,0.0124
3979.00,0.0125
3978.00,0.0125
3977.00,0.0125
3976.00,0.0125
3975.00,0.0125
3974.00,0.0125
3973.00,0.0125
3972.00,0.0125
3971.00,0.0125
3970.00,0.0125
3969.00,0.0125
3968.00,0.0125
3967.00,0.0125
3966.00,0.0125
3965.00,0.0125
3964.00,0.0125
3963.00,0.0125
3962.00,0.0125
3961.00,0.0125
3960.00,0.0125
3959.00,0.0125
3958.00,0.0125
3957.00,0.0125
3956.00,0.0125
3955.00,0.0125
3954.00,0.0125
3953.00,0.0126
3952.00,0.0126
3951.00,0.0126
3950.00,0.0126
3949.00,0.0126
3948.00,0.0126
3947.00,0.0126
3946.00,0.0126
3945.00,0.0126
3944.00,0.0126
3943.00,0.0126
3942.00,0.0126
3941.00,0.0126
3940.00,0.0126
3939.00,0.0126
3938.00,0.0126
3937.00,0.0126
3936.00,0.0127
3935.00,0.0127
3934.00,0.0127
3933.00,0.0127
3932.00,0.0127
3931.00,0.0127
3930.00,0.0127
3929.00,0.0127
3928.00,0.0127
3927.00,0.0127
3926.00,0.0127
3925.00,0.0127
3924.00,0.0127
3923.00,0.0127
3922.00,0.0128
3921.00,0.0128
3920.00,0.0128
3919.00,0.0128
3918.00,0.0128
3917.00,0.0127
3916.00,0.0127
3915.00,0.0127
3914.00,0.0126
3913.00,0.0126
3912.00,0.0127
3911.00,0.0127
3910.00,0.0127
3909.00,0.0128
3908.00,0.0128
3907.00,0.0129
3906.00,0.0129
3905.00,0.0130
3904.00,0.0131
3903.00,0.0131
3902.00,0.0131
3901.00,0.0130
3900.00,0.0129
3899.00,0.0128
3898.00,0.0128
3897.00,0.0128
3896.00,0.0128
3895.00,0.0128
3894.00,0.0128
3893.00,0.0128
3892.00,0.0128
3891.00,0.0128
3890.00,0.0129
3889.00,0.0129
3888.00,0.0129
3887.00,0.0129
3886.00,0.0129
3885.00,0.0130
3884.00,0.0130
3883.00,0.0129
3882.00,0.0128
3881.00,0.0128
3880.00,0.0129
3879.00,0.0130
3878.00,0.0130
3877.00,0.0129
3876.00,0.0129
3875.00,0.0129
3874.00,0.0130
3873.00,0.0131
3872.00,0.0130
3871.00,0.0130
3870.00,0.0130
3869.00,0.0131
3868.00,0.0131
3867.00,0.0130
3866.00,0.0129
3865.00,0.0129
3864.00,0.0130
3863.00,0.0130
3862.00,0.0130
3861.00,0.0129
3860.00,0.0130
3859.00,0.0130
3858.00,0.0130
3857.00,0.0130
3856.00,0.0129
3855.00,0.0128
3854.00,0.0128
3853.00,0.0130
3852.00,0.0132
3851.00,0.0131
3850.00,0.0129
3849.00,0.0128
3848.00,0.0129
3847.00,0.0130
3846.00,0.0130
3845.00,0.0130
3844.00,0.0130
3843.00,0.0131
3842.00,0.0131
3841.00,0.0131
3840.00,0.0130
3839.00,0.0130
3838.00,0.0130
3837.00,0.0131
3836.00,0.0130
3835.00,0.0130
3834.00,0.0130
3833.00,0.0130
3832.00,0.0130
3831.00,0.0130
3830.00,0.0131
3829.00,0.0130
3828.00,0.0130
3827.00,0.0130
3826.00,0.0131
3825.00,0.0131
3824.00,0.0131
3823.00,0.0130
3822.00,0.0130
3821.00,0.0131
3820.00,0.0132
3819.00,0.0132
3818.00,0.0130
3817.00,0.0129
3816.00,0.0130
3815.00,0.0131
3814.00,0.0131
3813.00,0.0130
3812.00,0.0129
3811.00,0.0130
3810.00,0.0130
3809.00,0.0130
3808.00,0.0130
3807.00,0.0130
3806.00,0.0131
3805.00,0.0131
3804.00,0.0131
3803.00,0.0130
3802.00,0.0130
3801.00,0.0131
3800.00,0.0132
3799.00,0.0131
3798.00,0.0130
3797.00,0.0130
3796.00,0.0131
3795.00,0.0131
3794.00,0.0131
3793.00,0.0130
3792.00,0.0130
3791.00,0.0130
3790.00,0.0130
3789.00,0.0130
3788.00,0.0130
3787.00,0.0130
3786.00,0.0130
3785.00,0.0130
3784.00,0.0131
3783.00,0.0131
3782.00,0.0131
3781.00,0.0131
3780.00,0.0131
3779.00,0.0131
3778.00,0.0131
3777.00,0.0131
3776.00,0.0130
3775.00,0.0130
3774.00,0.0131
3773.00,0.0131
3772.00,0.0131
3771.00,0.0131
3770.00,0.0131
3769.00,0.0132
3768.00,0.0132
3767.00,0.0131
3766.00,0.0131
3765.00,0.0132
3764.00,0.0132
3763.00,0.0132
3762.00,0.0132
3761.00,0.0132
3760.00,0.0132
3759.00,0.0133
3758.00,0.0133
3757.00,0.0133
3756.00,0.0133
3755.00,0.0134
3754.00,0.0134
3753.00,0.0134
3752.00,0.0134
3751.00,0.0134
3750.00,0.0134
3749.00,0.0134
3748.00,0.0134
3747.00,0.0134
3746.00,0.0133
3745.00,0.0133
3744.00,0.0134
3743.00,0.0135
3742.00,0.0134
3741.00,0.0133
3740.00,0.0134
3739.00,0.0137
3738.00,0.0138
3737.00,0.0137
3736.00,0.0136
3735.00,0.0135
3734.00,0.0134
3733.00,0.0133
3732.00,0.0133
3731.00,0.0134
3730.00,0.0134
3729.00,0.0134
3728.00,0.0134
3727.00,0.0134
3726.00,0.0135
3725.00,0.0134
3724.00,0.0134
3723.00,0.0133
3722.00,0.0133
3721.00,0.0134
3720.00,0.0134
3719.00,0.0133
3718.00,0.0133
3717.00,0.0134
3716.00,0.0134
3715.00,0.0134
3714.00,0.0133
3713.00,0.0133
3712.00,0.0133
3711.00,0.0133
3710.00,0.0133
3709.00,0.0133
3708.00,0.0132
3707.00,0.0132
3706.00,0.0132
3705.00,0.0132
3704.00,0.0132
3703.00,0.0132
3702.00,0.0132
3701.00,0.0132
3700.00,0.0132
3699.00,0.0132
3698.00,0.0132
3697.00,0.0132
3696.00,0.0132
3695.00,0.0132
3694.00,0.0132
3693.00,0.0132
3692.00,0.0132
3691.00,0.0132
3690.00,0.0132
3689.00,0.0132
3688.00,0.0132
3687.00,0.0132
3686.00,0.0132
3685.00,0.0131
3684.00,0.0131
3683.00,0.0132
3682.00,0.0132
3681.00,0.0132
3680.00,0.0133
3679.00,0.0133
3678.00,0.0133
3677.00,0.0133
3676.00,0.0132
3675.00,0.0133
3674.00,0.0134
3673.00,0.0133
3672.00,0.0132
3671.00,0.0132
3670.00,0.0132
3669.00,0.0133
3668.00,0.0132
3667.00,0.0131
3666.00,0.0130
3665.00,0.0130
3664.00,0.0131
3663.00,0.0131
3662.00,0.0130
3661.00,0.0130
3660.00,0.0131
3659.00,0.0131
3658.00,0.0131
3657.00,0.0131
3656.00,0.0131
3655.00,0.0132
3654.00,0.0132
3653.00,0.0133
3652.00,0.0134
3651.00,0.0135
3650.00,0.0135
3649.00,0.0135
3648.00,0.0134
3647.00,0.0133
3646.00,0.0133
3645.00,0.0132
3644.00,0.0132
3643.00,0.0131
3642.00,0.0131
3641.00,0.0131
3640.00,0.0130
3639.00,0.0130
3638.00,0.0130
3637.00,0.0131
3636.00,0.0131
3635.00,0.0131
3634.00,0.0132
3633.00,0.0133
3632.00,0.0133
3631.00,0.0133
3630.00,0.0132
3629.00,0.0132
3628.00,0.0133
3627.00,0.0132
3626.00,0.0131
3625.00,0.0131
3624.00,0.0131
3623.00,0.0132
3622.00,0.0132
3621.00,0.0132
3620.00,0.0131
3619.00,0.0132
3618.00,0.0133
3617.00,0.0133
3616.00,0.0133
3615.00,0.0133
3614.00,0.0133
3613.00,0.0133
3612.00,0.0133
3611.00,0.0133
3610.00,0.0132
3609.00,0.0132
3608.00,0.0131
3607.00,0.0131
3606.00,0.0130
3605.00,0.0130
3604.00,0.0130
3603.00,0.0130
3602.00,0.0130
3601.00,0.0130
3600.00,0.0130
3599.00,0.0130
3598.00,0.0131
3597.00,0.0131
3596.00,0.0131
3595.00,0.0131
3594.00,0.0131
3593.00,0.0131
3592.00,0.0131
3591.00,0.0132
3590.00,0.0132
3589.00,0.0132
3588.00,0.0132
3587.00,0.0131
3586.00,0.0130
3585.00,0.0130
3584.00,0.0129
3583.00,0.0129
3582.00,0.0129
3581.00,0.0129
3580.00,0.0129
3579.00,0.0129
3578.00,0.0128
3577.00,0.0128
3576.00,0.0128
3575.00,0.0129
3574.00,0.0129
3573.00,0.0129
3572.00,0.0130
3571.00,0.0131
3570.00,0.0131
3569.00,0.0132
3568.00,0.0132
3567.00,0.0131
3566.00,0.0130
3565.00,0.0130
3564.00,0.0129
3563.00,0.0129
3562.00,0.0129
3561.00,0.0129
3560.00,0.0128
3559.00,0.0128
3558.00,0.0128
3557.00,0.0128
3556.00,0.0128
3555.00,0.0128
3554.00,0.0128
3553.00,0.0128
3552.00,0.0128
3551.00,0.0128
3550.00,0.0128
3549.00,0.0129
3548.00,0.0129
3547.00,0.0129
3546.00,0.0129
3545.00,0.0128
3544.00,0.0128
3543.00,0.0127
3542.00,0.0127
3541.00,0.0127
3540.00,0.0127
3539.00,0.0127
3538.00,0.0127
3537.00,0.0127
3536.00,0.0127
3535.00,0.0127
3534.00,0.0127
3533.00,0.0127
3532.00,0.0127
3531.00,0.0127
3530.00,0.0127
3529.00,0.0127
3528.00,0.0127
3527.00,0.0127
3526.00,0.0127
3525.00,0.0127
3524.00,0.0127
3523.00,0.0127
3522.00,0.0126
3521.00,0.0126
3520.00,0.0126
3519.00,0.0126
3518.00,0.0126
3517.00,0.0126
3516.00,0.0126
3515.00,0.0126
3514.00,0.0126
3513.00,0.0126
3512.00,0.0126
3511.00,0.0126
3510.00,0.0126
3509.00,0.0126
3508.00,0.0126
3507.00,0.0126
3506.00,0.0126
3505.00,0.0126
3504.00,0.0126
3503.00,0.0126
3502.00,0.0126
3501.00,0.0125
3500.00,0.0125
3499.00,0.0125
3498.00,0.0125
3497.00,0.0125
3496.00,0.0125
3495.00,0.0125
3494.00,0.0125
3493.00,0.0124
3492.00,0.0125
3491.00,0.0125
3490.00,0.0125
3489.00,0.0125
3488.00,0.0124
3487.00,0.0124
3486.00,0.0124
3485.00,0.0124
3484.00,0.0124
3483.00,0.0125
3482.00,0.0124
3481.00,0.0124
3480.00,0.0124
3479.00,0.0124
3478.00,0.0124
3477.00,0.0124
3476.00,0.0124
3475.00,0.0124
3474.00,0.0124
3473.00,0.0124
3472.00,0.0124
3471.00,0.0124
3470.00,0.0124
3469.00,0.0124
3468.00,0.0124
3467.00,0.0124
3466.00,0.0124
3465.00,0.0124
3464.00,0.0124
3463.00,0.0124
3462.00,0.0124
3461.00,0.0124
3460.00,0.0124
3459.00,0.0124
3458.00,0.0124
3457.00,0.0123
3456.00,0.0123
3455.00,0.0123
3454.00,0.0124
3453.00,0.0124
3452.00,0.0124
3451.00,0.0124
3450.00,0.0124
3449.00,0.0124
3448.00,0.0124
3447.00,0.0124
3446.00,0.0124
3445.00,0.0124
3444.00,0.0124
3443.00,0.0124
3442.00,0.0124
3441.00,0.0124
3440.00,0.0124
3439.00,0.0124
3438.00,0.0124
3437.00,0.0124
3436.00,0.0124
3435.00,0.0124
3434.00,0.0124
3433.00,0.0124
3432.00,0.0124
3431.00,0.0124
3430.00,0.0124
3429.00,0.0124
3428.00,0.0124
3427.00,0.0124
3426.00,0.0124
3425.00,0.0124
3424.00,0.0124
3423.00,0.0124
3422.00,0.0124
3421.00,0.0124
3420.00,0.0124
3419.00,0.0124
3418.00,0.0124
3417.00,0.0124
3416.00,0.0124
3415.00,0.0124
3414.00,0.0124
3413.00,0.0124
3412.00,0.0124
3411.00,0.0124
3410.00,0.0124
3409.00,0.0124
3408.00,0.0124
3407.00,0.0124
3406.00,0.0124
3405.00,0.0124
3404.00,0.0124
3403.00,0.0124
3402.00,0.0124
3401.00,0.0124
3400.00,0.0124
3399.00,0.0124
3398.00,0.0124
3397.00,0.0124
3396.00,0.0124
3395.00,0.0124
3394.00,0.0124
3393.00,0.0124
3392.00,0.0124
3391.00,0.0124
3390.00,0.0124
3389.00,0.0124
3388.00,0.0124
3387.00,0.0124
3386.00,0.0124
3385.00,0.0124
3384.00,0.0124
3383.00,0.0124
3382.00,0.0124
3381.00,0.0124
3380.00,0.0124
3379.00,0.0124
3378.00,0.0124
3377.00,0.0124
3376.00,0.0124
3375.00,0.0125
3374.00,0.0125
3373.00,0.0125
3372.00,0.0125
3371.00,0.0125
3370.00,0.0125
3369.00,0.0125
3368.00,0.0125
3367.00,0.0125
3366.00,0.0125
3365.00,0.0125
3364.00,0.0125
3363.00,0.0125
3362.00,0.0125
3361.00,0.0125
3360.00,0.0125
3359.00,0.0125
3358.00,0.0125
3357.00,0.0125
3356.00,0.0126
3355.00,0.0126
3354.00,0.0126
3353.00,0.0126
3352.00,0.0126
3351.00,0.0126
3350.00,0.0126
3349.00,0.0126
3348.00,0.0126
3347.00,0.0126
3346.00,0.0126
3345.00,0.0126
3344.00,0.0126
3343.00,0.0126
3342.00,0.0126
3341.00,0.0126
3340.00,0.0126
3339.00,0.0126
3338.00,0.0126
3337.00,0.0126
3336.00,0.0126
3335.00,0.0126
3334.00,0.0126
3333.00,0.0127
3332.00,0.0127
3331.00,0.0127
3330.00,0.0127
3329.00,0.0127
3328.00,0.0127
3327.00,0.0127
3326.00,0.0127
3325.00,0.0127
3324.00,0.0127
3323.00,0.0127
3322.00,0.0127
3321.00,0.0127
3320.00,0.0127
3319.00,0.0127
3318.00,0.0127
3317.00,0.0127
3316.00,0.0127
3315.00,0.0127
3314.00,0.0127
3313.00,0.0128
3312.00,0.0128
3311.00,0.0128
3310.00,0.0128
3309.00,0.0128
3308.00,0.0128
3307.00,0.0128
3306.00,0.0128
3305.00,0.0128
3304.00,0.0128
3303.00,0.0128
3302.00,0.0128
3301.00,0.0128
3300.00,0.0128
3299.00,0.0128
3298.00,0.0128
3297.00,0.0128
3296.00,0.0128
3295.00,0.0128
3294.00,0.0128
3293.00,0.0128
3292.00,0.0128
3291.00,0.0128
3290.00,0.0128
3289.00,0.0128
3288.00,0.0128
3287.00,0.0128
3286.00,0.0128
3285.00,0.0129
3284.00,0.0129
3283.00,0.0129
3282.00,0.0129
3281.00,0.0129
3280.00,0.0129
3279.00,0.0129
3278.00,0.0129
3277.00,0.0129
3276.00,0.0129
3275.00,0.0129
3274.00,0.0129
3273.00,0.0129
3272.00,0.0129
3271.00,0.0129
3270.00,0.0129
3269.00,0.0129
3268.00,0.0129
3267.00,0.0129
3266.00,0.0129
3265.00,0.0129
3264.00,0.0129
3263.00,0.0129
3262.00,0.0129
3261.00,0.0129
3260.00,0.0129
3259.00,0.0129
3258.00,0.0130
3257.00,0.0130
3256.00,0.0130
3255.00,0.0130
3254.00,0.0130
3253.00,0.0130
3252.00,0.0130
3251.00,0.0130
3250.00,0.0130
3249.00,0.0130
3248.00,0.0130
3247.00,0.0130
3246.00,0.0130
3245.00,0.0130
3244.00,0.0130
3243.00,0.0130
3242.00,0.0130
3241.00,0.0130
3240.00,0.0130
3239.00,0.0130
3238.00,0.0130
3237.00,0.0130
3236.00,0.0130
3235.00,0.0130
3234.00,0.0130
3233.00,0.0130
3232.00,0.0131
3231.00,0.0131
3230.00,0.0131
3229.00,0.0131
3228.00,0.0131
3227.00,0.0131
3226.00,0.0131
3225.00,0.0131
3224.00,0.0131
3223.00,0.0131
3222.00,0.0131
3221.00,0.0131
3220.00,0.0131
3219.00,0.0131
3218.00,0.0131
3217.00,0.0131
3216.00,0.0131
3215.00,0.0131
3214.00,0.0131
3213.00,0.0131
3212.00,0.0131
3211.00,0.0131
3210.00,0.0131
3209.00,0.0131
3208.00,0.0131
3207.00,0.0131
3206.00,0.0131
3205.00,0.0131
3204.00,0.0132
3203.00,0.0132
3202.00,0.0132
3201.00,0.0132
3200.00,0.0132
3199.00,0.0132
3198.00,0.0132
3197.00,0.0132
3196.00,0.0132
3195.00,0.0132
3194.00,0.0132
3193.00,0.0132
3192.00,0.0132
3191.00,0.0132
3190.00,0.0132
3189.00,0.0132
3188.00,0.0133
3187.00,0.0133
3186.00,0.0133
3185.00,0.0133
3184.00,0.0133
3183.00,0.0133
3182.00,0.0133
3181.00,0.0133
3180.00,0.0133
3179.00,0.0133
3178.00,0.0133
3177.00,0.0133
3176.00,0.0133
3175.00,0.0133
3174.00,0.0133
3173.00,0.0133
3172.00,0.0133
3171.00,0.0133
3170.00,0.0133
3169.00,0.0133
3168.00,0.0133
3167.00,0.0134
3166.00,0.0134
3165.00,0.0134
3164.00,0.0134
3163.00,0.0134
3162.00,0.0134
3161.00,0.0134
3160.00,0.0134
3159.00,0.0134
3158.00,0.0134
3157.00,0.0134
3156.00,0.0134
3155.00,0.0134
3154.00,0.0134
3153.00,0.0134
3152.00,0.0134
3151.00,0.0134
3150.00,0.0134
3149.00,0.0134
3148.00,0.0134
3147.00,0.0134
3146.00,0.0134
3145.00,0.0134
3144.00,0.0134
3143.00,0.0135
3142.00,0.0135
3141.00,0.0135
3140.00,0.0135
3139.00,0.0135
3138.00,0.0135
3137.00,0.0135
3136.00,0.0135
3135.00,0.0135
3134.00,0.0135
3133.00,0.0135
3132.00,0.0135
3131.00,0.0135
3130.00,0.0135
3129.00,0.0135
3128.00,0.0135
3127.00,0.0135
3126.00,0.0135
3125.00,0.0135
3124.00,0.0135
3123.00,0.0135
3122.00,0.0136
3121.00,0.0136
3120.00,0.0136
3119.00,0.0136
3118.00,0.0136
3117.00,0.0136
3116.00,0.0136
3115.00,0.0136
3114.00,0.0136
3113.00,0.0136
3112.00,0.0136
3111.00,0.0136
3110.00,0.0136
3109.00,0.0136
3108.00,0.0136
3107.00,0.0136
3106.00,0.0136
3105.00,0.0136
3104.00,0.0136
3103.00,0.0136
3102.00,0.0136
3101.00,0.0136
3100.00,0.0136
3099.00,0.0136
3098.00,0.0136
3097.00,0.0136
3096.00,0.0136
3095.00,0.0136
3094.00,0.0136
3093.00,0.0136
3092.00,0.0136
3091.00,0.0136
3090.00,0.0136
3089.00,0.0136
3088.00,0.0136
3087.00,0.0136
3086.00,0.0137
3085.00,0.0137
3084.00,0.0137
3083.00,0.0137
3082.00,0.0137
3081.00,0.0137
3080.00,0.0137
3079.00,0.0137
3078.00,0.0137
3077.00,0.0137
3076.00,0.0137
3075.00,0.0137
3074.00,0.0137
3073.00,0.0137
3072.00,0.0137
3071.00,0.0137
3070.00,0.0137
3069.00,0.0137
3068.00,0.0137
3067.00,0.0137
3066.00,0.0137
3065.00,0.0137
3064.00,0.0137
3063.00,0.0137
3062.00,0.0137
3061.00,0.0137
3060.00,0.0137
3059.00,0.0137
3058.00,0.0137
3057.00,0.0137
3056.00,0.0137
3055.00,0.0137
3054.00,0.0137
3053.00,0.0137
3052.00,0.0137
3051.00,0.0137
3050.00,0.0137
3049.00,0.0137
3048.00,0.0137
3047.00,0.0137
3046.00,0.0137
3045.00,0.0137
3044.00,0.0137
3043.00,0.0137
3042.00,0.0137
3041.00,0.0137
3040.00,0.0137
3039.00,0.0137
3038.00,0.0137
3037.00,0.0137
3036.00,0.0137
3035.00,0.0137
3034.00,0.0137
3033.00,0.0137
3032.00,0.0137
3031.00,0.0137
3030.00,0.0137
3029.00,0.0137
3028.00,0.0137
3027.00,0.0137
3026.00,0.0137
3025.00,0.0136
3024.00,0.0136
3023.00,0.0136
3022.00,0.0136
3021.00,0.0136
3020.00,0.0136
3019.00,0.0136
3018.00,0.0136
3017.00,0.0136
3016.00,0.0136
3015.00,0.0135
3014.00,0.0135
3013.00,0.0135
3012.00,0.0135
3011.00,0.0135
3010.00,0.0135
3009.00,0.0135
3008.00,0.0135
3007.00,0.0134
3006.00,0.0134
3005.00,0.0134
3004.00,0.0134
3003.00,0.0134
3002.00,0.0134
3001.00,0.0134
3000.00,0.0134
2999.00,0.0133
2998.00,0.0133
2997.00,0.0133
2996.00,0.0133
2995.00,0.0133
2994.00,0.0133
2993.00,0.0133
2992.00,0.0133
2991.00,0.0132
2990.00,0.0132
2989.00,0.0132
2988.00,0.0132
2987.00,0.0132
2986.00,0.0132
2985.00,0.0132
2984.00,0.0132
2983.00,0.0132
2982.00,0.0132
2981.00,0.0133
2980.00,0.0133
2979.00,0.0133
2978.00,0.0133
2977.00,0.0133
2976.00,0.0133
2975.00,0.0133
2974.00,0.0133
2973.00,0.0133
2972.00,0.0133
2971.00,0.0133
2970.00,0.0133
2969.00,0.0133
2968.00,0.0133
2967.00,0.0133
2966.00,0.0134
2965.00,0.0134
2964.00,0.0134
2963.00,0.0134
2962.00,0.0134
2961.00,0.0134
2960.00,0.0134
2959.00,0.0134
2958.00,0.0134
2957.00,0.0134
2956.00,0.0134
2955.00,0.0134
2954.00,0.0134
2953.00,0.0134
2952.00,0.0134
2951.00,0.0134
2950.00,0.0134
2949.00,0.0134
2948.00,0.0134
2947.00,0.0134
2946.00,0.0134
2945.00,0.0134
2944.00,0.0135
2943.00,0.0135
2942.00,0.0135
2941.00,0.0135
2940.00,0.0135
2939.00,0.0135
2938.00,0.0135
2937.00,0.0135
2936.00,0.0135
2935.00,0.0135
2934.00,0.0135
2933.00,0.0135
2932.00,0.0135
2931.00,0.0135
2930.00,0.0135
2929.00,0.0135
2928.00,0.0134
2927.00,0.0134
2926.00,0.0134
2925.00,0.0134
2924.00,0.0134
2923.00,0.0133
2922.00,0.0133
2921.00,0.0133
2920.00,0.0133
2919.00,0.0132
2918.00,0.0132
2917.00,0.0132
2916.00,0.0132
2915.00,0.0132
2914.00,0.0133
2913.00,0.0133
2912.00,0.0133
2911.00,0.0133
2910.00,0.0133
2909.00,0.0133
2908.00,0.0133
2907.00,0.0133
2906.00,0.0133
2905.00,0.0133
2904.00,0.0133
2903.00,0.0133
2902.00,0.0133
2901.00,0.0133
2900.00,0.0133
2899.00,0.0133
2898.00,0.0134
2897.00,0.0134
2896.00,0.0134
2895.00,0.0134
2894.00,0.0134
2893.00,0.0134
2892.00,0.0134
2891.00,0.0134
2890.00,0.0134
2889.00,0.0135
2888.00,0.0135
2887.00,0.0135
2886.00,0.0135
2885.00,0.0135
2884.00,0.0135
2883.00,0.0135
2882.00,0.0135
2881.00,0.0136
2880.00,0.0136
2879.00,0.0136
2878.00,0.0136
2877.00,0.0136
2876.00,0.0136
2875.00,0.0137
2874.00,0.0137
2873.00,0.0137
2872.00,0.0137
2871.00,0.0137
2870.00,0.0137
2869.00,0.0137
2868.00,0.0137
2867.00,0.0137
2866.00,0.0137
2865.00,0.0137
2864.00,0.0137
2863.00,0.0137
2862.00,0.0138
2861.00,0.0138
2860.00,0.0138
2859.00,0.0138
2858.00,0.0138
2857.00,0.0138
2856.00,0.0138
2855.00,0.0137
2854.00,0.0137
2853.00,0.0137
2852.00,0.0137
2851.00,0.0137
2850.00,0.0137
2849.00,0.0137
2848.00,0.0137
2847.00,0.0137
2846.00,0.0137
2845.00,0.0137
2844.00,0.0138
2843.00,0.0138
2842.00,0.0138
2841.00,0.0138
2840.00,0.0138
2839.00,0.0138
2838.00,0.0139
2837.00,0.0139
2836.00,0.0139
2835.00,0.0139
2834.00,0.0139
2833.00,0.0139
2832.00,0.0139
2831.00,0.0139
2830.00,0.0139
2829.00,0.0139
2828.00,0.0139
2827.00,0.0139
2826.00,0.0139
2825.00,0.0139
2824.00,0.0139
2823.00,0.0140
2822.00,0.0140
2821.00,0.0140
2820.00,0.0140
2819.00,0.0140
2818.00,0.0140
2817.00,0.0140
2816.00,0.0140
2815.00,0.0140
2814.00,0.0140
2813.00,0.0140
2812.00,0.0140
2811.00,0.0140
2810.00,0.0140
2809.00,0.0140
2808.00,0.0140
2807.00,0.0140
2806.00,0.0140
2805.00,0.0140
2804.00,0.0140
2803.00,0.0140
2802.00,0.0140
2801.00,0.0140
2800.00,0.0140
2799.00,0.0140
2798.00,0.0140
2797.00,0.0140
2796.00,0.0140
2795.00,0.0140
2794.00,0.0140
2793.00,0.0140
2792.00,0.0140
2791.00,0.0140
2790.00,0.0140
2789.00,0.0140
2788.00,0.0140
2787.00,0.0140
2786.00,0.0140
2785.00,0.0140
2784.00,0.0140
2783.00,0.0141
2782.00,0.0141
2781.00,0.0141
2780.00,0.0141
2779.00,0.0141
2778.00,0.0140
2777.00,0.0141
2776.00,0.0141
2775.00,0.0141
2774.00,0.0141
2773.00,0.0141
2772.00,0.0140
2771.00,0.0141
2770.00,0.0141
2769.00,0.0141
2768.00,0.0141
2767.00,0.0141
2766.00,0.0141
2765.00,0.0141
2764.00,0.0141
2763.00,0.0141
2762.00,0.0141
2761.00,0.0141
2760.00,0.0141
2759.00,0.0141
2758.00,0.0141
2757.00,0.0141
2756.00,0.0141
2755.00,0.0141
2754.00,0.0141
2753.00,0.0141
2752.00,0.0141
2751.00,0.0141
2750.00,0.0141
2749.00,0.0141
2748.00,0.0141
2747.00,0.0141
2746.00,0.0141
2745.00,0.0141
2744.00,0.0141
2743.00,0.0141
2742.00,0.0141
2741.00,0.0141
2740.00,0.0141
2739.00,0.0141
2738.00,0.0141
2737.00,0.0141
2736.00,0.0141
2735.00,0.0141
2734.00,0.0141
2733.00,0.0141
2732.00,0.0141
2731.00,0.0141
2730.00,0.0141
2729.00,0.0141
2728.00,0.0141
2727.00,0.0141
2726.00,0.0141
2725.00,0.0141
2724.00,0.0141
2723.00,0.0141
2722.00,0.0141
2721.00,0.0141
2720.00,0.0141
2719.00,0.0141
2718.00,0.0141
2717.00,0.0141
2716.00,0.0141
2715.00,0.0141
2714.00,0.0141
2713.00,0.0141
2712.00,0.0141
2711.00,0.0141
2710.00,0.0141
2709.00,0.0141
2708.00,0.0141
2707.00,0.0141
2706.00,0.0141
2705.00,0.0141
2704.00,0.0141
2703.00,0.0141
2702.00,0.0141
2701.00,0.0141
2700.00,0.0141
2699.00,0.0141
2698.00,0.0141
2697.00,0.0141
2696.00,0.0141
2695.00,0.0141
2694.00,0.0141
2693.00,0.0141
2692.00,0.0141
2691.00,0.0141
2690.00,0.0141
2689.00,0.0141
2688.00,0.0141
2687.00,0.0141
2686.00,0.0141
2685.00,0.0141
2684.00,0.0141
2683.00,0.0141
2682.00,0.0142
2681.00,0.0142
2680.00,0.0142
2679.00,0.0142
2678.00,0.0142
2677.00,0.0142
2676.00,0.0142
2675.00,0.0142
2674.00,0.0142
2673.00,0.0142
2672.00,0.0142
2671.00,0.0142
2670.00,0.0142
2669.00,0.0142
2668.00,0.0142
2667.00,0.0142
2666.00,0.0142
2665.00,0.0142
2664.00,0.0142
2663.00,0.0142
2662.00,0.0142
2661.00,0.0142
2660.00,0.0142
2659.00,0.0142
2658.00,0.0142
2657.00,0.0142
2656.00,0.0142
2655.00,0.0142
2654.00,0.0142
2653.00,0.0142
2652.00,0.0142
2651.00,0.0142
2650.00,0.0142
2649.00,0.0142
2648.00,0.0142
2647.00,0.0142
2646.00,0.0142
2645.00,0.0142
2644.00,0.0142
2643.00,0.0142
2642.00,0.0142
2641.00,0.0142
2640.00,0.0142
2639.00,0.0142
2638.00,0.0142
2637.00,0.0142
2636.00,0.0142
2635.00,0.0142
2634.00,0.0142
2633.00,0.0142
2632.00,0.0142
2631.00,0.0142
2630.00,0.0142
2629.00,0.0142
2628.00,0.0142
2627.00,0.0142
2626.00,0.0142
2625.00,0.0142
2624.00,0.0142
2623.00,0.0142
2622.00,0.0142
2621.00,0.0142
2620.00,0.0142
2619.00,0.0142
2618.00,0.0142
2617.00,0.0142
2616.00,0.0142
2615.00,0.0142
2614.00,0.0142
2613.00,0.0142
2612.00,0.0142
2611.00,0.0142
2610.00,0.0142
2609.00,0.0142
2608.00,0.0142
2607.00,0.0142
2606.00,0.0142
2605.00,0.0142
2604.00,0.0142
2603.00,0.0142
2602.00,0.0142
2601.00,0.0142
2600.00,0.0142
2599.00,0.0142
2598.00,0.0142
2597.00,0.0142
2596.00,0.0142
2595.00,0.0142
2594.00,0.0142
2593.00,0.0142
2592.00,0.0142
2591.00,0.0142
2590.00,0.0142
2589.00,0.0142
2588.00,0.0142
2587.00,0.0142
2586.00,0.0142
2585.00,0.0142
2584.00,0.0142
2583.00,0.0142
2582.00,0.0142
2581.00,0.0142
2580.00,0.0142
2579.00,0.0142
2578.00,0.0142
2577.00,0.0142
2576.00,0.0142
2575.00,0.0142
2574.00,0.0142
2573.00,0.0142
2572.00,0.0142
2571.00,0.0143
2570.00,0.0143
2569.00,0.0143
2568.00,0.0143
2567.00,0.0143
2566.00,0.0143
2565.00,0.0142
2564.00,0.0142
2563.00,0.0142
2562.00,0.0143
2561.00,0.0143
2560.00,0.0143
2559.00,0.0143
2558.00,0.0143
2557.00,0.0143
2556.00,0.0143
2555.00,0.0143
2554.00,0.0143
2553.00,0.0143
2552.00,0.0143
2551.00,0.0143
2550.00,0.0143
2549.00,0.0143
2548.00,0.0143
2547.00,0.0143
2546.00,0.0143
2545.00,0.0143
2544.00,0.0143
2543.00,0.0143
2542.00,0.0143
2541.00,0.0143
2540.00,0.0143
2539.00,0.0143
2538.00,0.0143
2537.00,0.0143
2536.00,0.0143
2535.00,0.0143
2534.00,0.0143
2533.00,0.0143
2532.00,0.0143
2531.00,0.0143
2530.00,0.0143
2529.00,0.0143
2528.00,0.0143
2527.00,0.0143
2526.00,0.0143
2525.00,0.0143
2524.00,0.0143
2523.00,0.0143
2522.00,0.0143
2521.00,0.0143
2520.00,0.0143
2519.00,0.0143
2518.00,0.0143
2517.00,0.0143
2516.00,0.0143
2515.00,0.0143
2514.00,0.0143
2513.00,0.0143
2512.00,0.0143
2511.00,0.0143
2510.00,0.0143
2509.00,0.0143
2508.00,0.0143
2507.00,0.0143
2506.00,0.0143
2505.00,0.0143
2504.00,0.0143
2503.00,0.0143
2502.00,0.0143
2501.00,0.0143
2500.00,0.0143
2499.00,0.0143
2498.00,0.0143
2497.00,0.0143
2496.00,0.0143
2495.00,0.0143
2494.00,0.0143
2493.00,0.0143
2492.00,0.0143
2491.00,0.0143
2490.00,0.0143
2489.00,0.0143
2488.00,0.0143
2487.00,0.0143
2486.00,0.0143
2485.00,0.0143
2484.00,0.0143
2483.00,0.0143
2482.00,0.0143
2481.00,0.0143
2480.00,0.0143
2479.00,0.0143
2478.00,0.0143
2477.00,0.0143
2476.00,0.0143
2475.00,0.0143
2474.00,0.0143
2473.00,0.0143
2472.00,0.0143
2471.00,0.0143
2470.00,0.0143
2469.00,0.0143
2468.00,0.0143
2467.00,0.0143
2466.00,0.0143
2465.00,0.0143
2464.00,0.0143
2463.00,0.0143
2462.00,0.0143
2461.00,0.0143
2460.00,0.0143
2459.00,0.0143
2458.00,0.0143
2457.00,0.0143
2456.00,0.0143
2455.00,0.0143
2454.00,0.0143
2453.00,0.0143
2452.00,0.0143
2451.00,0.0143
2450.00,0.0143
2449.00,0.0143
2448.00,0.0143
2447.00,0.0143
2446.00,0.0143
2445.00,0.0143
2444.00,0.0143
2443.00,0.0143
2442.00,0.0143
2441.00,0.0143
2440.00,0.0143
2439.00,0.0143
2438.00,0.0143
2437.00,0.0143
2436.00,0.0143
2435.00,0.0143
2434.00,0.0143
2433.00,0.0143
2432.00,0.0143
2431.00,0.0143
2430.00,0.0143
2429.00,0.0143
2428.00,0.0143
2427.00,0.0143
2426.00,0.0143
2425.00,0.0143
2424.00,0.0143
2423.00,0.0143
2422.00,0.0143
2421.00,0.0143
2420.00,0.0143
2419.00,0.0143
2418.00,0.0143
2417.00,0.0143
2416.00,0.0143
2415.00,0.0143
2414.00,0.0143
2413.00,0.0143
2412.00,0.0143
2411.00,0.0143
2410.00,0.0143
2409.00,0.0143
2408.00,0.0143
2407.00,0.0143
2406.00,0.0143
2405.00,0.0143
2404.00,0.0143
2403.00,0.0143
2402.00,0.0143
2401.00,0.0143
2400.00,0.0143
2399.00,0.0143
2398.00,0.0143
2397.00,0.0143
2396.00,0.0143
2395.00,0.0143
2394.00,0.0143
2393.00,0.0143
2392.00,0.0143
2391.00,0.0143
2390.00,0.0143
2389.00,0.0143
2388.00,0.0143
2387.00,0.0143
2386.00,0.0143
2385.00,0.0143
2384.00,0.0143
2383.00,0.0143
2382.00,0.0143
2381.00,0.0143
2380.00,0.0143
2379.00,0.0143
2378.00,0.0143
2377.00,0.0143
2376.00,0.0143
2375.00,0.0143
2374.00,0.0143
2373.00,0.0143
2372.00,0.0143
2371.00,0.0143
2370.00,0.0143
2369.00,0.0143
2368.00,0.0143
2367.00,0.0143
2366.00,0.0143
2365.00,0.0143
2364.00,0.0143
2363.00,0.0143
2362.00,0.0143
2361.00,0.0143
2360.00,0.0143
2359.00,0.0143
2358.00,0.0142
2357.00,0.0142
2356.00,0.0142
2355.00,0.0142
2354.00,0.0142
2353.00,0.0143
2352.00,0.0144
2351.00,0.0144
2350.00,0.0143
2349.00,0.0143
2348.00,0.0142
2347.00,0.0143
2346.00,0.0144
2345.00,0.0145
2344.00,0.0146
2343.00,0.0145
2342.00,0.0145
2341.00,0.0145
2340.00,0.0145
2339.00,0.0145
2338.00,0.0144
2337.00,0.0144
2336.00,0.0144
2335.00,0.0144
2334.00,0.0143
2333.00,0.0144
2332.00,0.0144
2331.00,0.0145
2330.00,0.0145
2329.00,0.0145
2328.00,0.0145
2327.00,0.0144
2326.00,0.0144
2325.00,0.0144
2324.00,0.0145
2323.00,0.0146
2322.00,0.0146
2321.00,0.0147
2320.00,0.0147
2319.00,0.0147
2318.00,0.0147
2317.00,0.0146
2316.00,0.0146
2315.00,0.0146
2314.00,0.0147
2313.00,0.0147
2312.00,0.0148
2311.00,0.0148
2310.00,0.0149
2309.00,0.0149
2308.00,0.0149
2307.00,0.0149
2306.00,0.0148
2305.00,0.0148
2304.00,0.0148
2303.00,0.0147
2302.00,0.0147
2301.00,0.0147
2300.00,0.0147
2299.00,0.0146
2298.00,0.0146
2297.00,0.0146
2296.00,0.0145
2295.00,0.0145
2294.00,0.0145
2293.00,0.0145
2292.00,0.0145
2291.00,0.0145
2290.00,0.0144
2289.00,0.0144
2288.00,0.0144
2287.00,0.0144
2286.00,0.0144
2285.00,0.0144
2284.00,0.0143
2283.00,0.0143
2282.00,0.0143
2281.00,0.0143
2280.00,0.0143
2279.00,0.0143
2278.00,0.0143
2277.00,0.0143
2276.00,0.0143
2275.00,0.0143
2274.00,0.0143
2273.00,0.0143
2272.00,0.0143
2271.00,0.0143
2270.00,0.0143
2269.00,0.0143
2268.00,0.0143
2267.00,0.0143
2266.00,0.0143
2265.00,0.0143
2264.00,0.0143
2263.00,0.0143
2262.00,0.0143
2261.00,0.0143
2260.00,0.0143
2259.00,0.0143
2258.00,0.0144
2257.00,0.0144
2256.00,0.0144
2255.00,0.0144
2254.00,0.0144
2253.00,0.0143
2252.00,0.0143
2251.00,0.0144
2250.00,0.0143
2249.00,0.0143
2248.00,0.0143
2247.00,0.0143
2246.00,0.0143
2245.00,0.0143
2244.00,0.0143
2243.00,0.0143
2242.00,0.0143
2241.00,0.0143
2240.00,0.0143
2239.00,0.0143
2238.00,0.0143
2237.00,0.0143
2236.00,0.0143
2235.00,0.0143
2234.00,0.0143
2233.00,0.0143
2232.00,0.0143
2231.00,0.0143
2230.00,0.0143
2229.00,0.0143
2228.00,0.0143
2227.00,0.0143
2226.00,0.0143
2225.00,0.0143
2224.00,0.0143
2223.00,0.0143
2222.00,0.0143
2221.00,0.0143
2220.00,0.0143
2219.00,0.0143
2218.00,0.0143
2217.00,0.0143
2216.00,0.0143
2215.00,0.0143
2214.00,0.0143
2213.00,0.0143
2212.00,0.0143
2211.00,0.0143
2210.00,0.0143
2209.00,0.0143
2208.00,0.0143
2207.00,0.0143
2206.00,0.0143
2205.00,0.0143
2204.00,0.0143
2203.00,0.0143
2202.00,0.0143
2201.00,0.0143
2200.00,0.0143
2199.00,0.0143
2198.00,0.0143
2197.00,0.0143
2196.00,0.0143
2195.00,0.0143
2194.00,0.0143
2193.00,0.0143
2192.00,0.0143
2191.00,0.0143
2190.00,0.0143
2189.00,0.0143
2188.00,0.0143
2187.00,0.0143
2186.00,0.0143
2185.00,0.0143
2184.00,0.0143
2183.00,0.0143
2182.00,0.0143
2181.00,0.0143
2180.00,0.0143
2179.00,0.0144
2178.00,0.0144
2177.00,0.0144
2176.00,0.0144
2175.00,0.0144
2174.00,0.0144
2173.00,0.0144
2172.00,0.0144
2171.00,0.0144
2170.00,0.0144
2169.00,0.0144
2168.00,0.0144
2167.00,0.0144
2166.00,0.0144
2165.00,0.0144
2164.00,0.0144
2163.00,0.0144
2162.00,0.0144
2161.00,0.0144
2160.00,0.0144
2159.00,0.0144
2158.00,0.0144
2157.00,0.0144
2156.00,0.0144
2155.00,0.0144
2154.00,0.0144
2153.00,0.0144
2152.00,0.0144
2151.00,0.0144
2150.00,0.0144
2149.00,0.0144
2148.00,0.0144
2147.00,0.0144
2146.00,0.0144
2145.00,0.0144
2144.00,0.0144
2143.00,0.0144
2142.00,0.0144
2141.00,0.0144
2140.00,0.0144
2139.00,0.0144
2138.00,0.0144
2137.00,0.0144
2136.00,0.0144
2135.00,0.0144
2134.00,0.0144
2133.00,0.0144
2132.00,0.0144
2131.00,0.0144
2130.00,0.0144
2129.00,0.0144
2128.00,0.0144
2127.00,0.0144
2126.00,0.0144
2125.00,0.0144
2124.00,0.0144
2123.00,0.0144
2122.00,0.0144
2121.00,0.0143
2120.00,0.0143
2119.00,0.0143
2118.00,0.0143
2117.00,0.0143
2116.00,0.0143
2115.00,0.0143
2114.00,0.0143
2113.00,0.0143
2112.00,0.0143
2111.00,0.0143
2110.00,0.0143
2109.00,0.0143
2108.00,0.0143
2107.00,0.0143
2106.00,0.0143
2105.00,0.0143
2104.00,0.0143
2103.00,0.0143
2102.00,0.0143
2101.00,0.0143
2100.00,0.0143
2099.00,0.0143
2098.00,0.0143
2097.00,0.0143
2096.00,0.0143
2095.00,0.0143
2094.00,0.0143
2093.00,0.0143
2092.00,0.0143
2091.00,0.0143
2090.00,0.0143
2089.00,0.0143
2088.00,0.0143
2087.00,0.0143
2086.00,0.0143
2085.00,0.0143
2084.00,0.0143
2083.00,0.0143
2082.00,0.0143
2081.00,0.0143
2080.00,0.0143
2079.00,0.0143
2078.00,0.0143
2077.00,0.0143
2076.00,0.0143
2075.00,0.0143
2074.00,0.0143
2073.00,0.0143
2072.00,0.0143
2071.00,0.0143
2070.00,0.0143
2069.00,0.0143
2068.00,0.0143
2067.00,0.0143
2066.00,0.0143
2065.00,0.0143
2064.00,0.0143
2063.00,0.0143
2062.00,0.0144
2061.00,0.0143
2060.00,0.0143
2059.00,0.0144
2058.00,0.0144
2057.00,0.0144
2056.00,0.0144
2055.00,0.0144
2054.00,0.0144
2053.00,0.0144
2052.00,0.0144
2051.00,0.0144
2050.00,0.0144
2049.00,0.0144
2048.00,0.0144
2047.00,0.0144
2046.00,0.0144
2045.00,0.0144
2044.00,0.0144
2043.00,0.0144
2042.00,0.0144
2041.00,0.0144
2040.00,0.0144
2039.00,0.0144
2038.00,0.0144
2037.00,0.0144
2036.00,0.0144
2035.00,0.0144
2034.00,0.0144
2033.00,0.0145
2032.00,0.0145
2031.00,0.0145
2030.00,0.0145
2029.00,0.0145
2028.00,0.0145
2027.00,0.0145
2026.00,0.0145
2025.00,0.0145
2024.00,0.0145
2023.00,0.0145
2022.00,0.0145
2021.00,0.0145
2020.00,0.0145
2019.00,0.0145
2018.00,0.0145
2017.00,0.0145
2016.00,0.0145
2015.00,0.0145
2014.00,0.0145
2013.00,0.0145
2012.00,0.0145
2011.00,0.0145
2010.00,0.0145
2009.00,0.0145
2008.00,0.0145
2007.00,0.0145
2006.00,0.0145
2005.00,0.0145
2004.00,0.0145
2003.00,0.0145
2002.00,0.0145
2001.00,0.0145
2000.00,0.0145
1999.00,0.0146
1998.00,0.0146
1997.00,0.0146
1996.00,0.0146
1995.00,0.0145
1994.00,0.0145
1993.00,0.0145
1992.00,0.0145
1991.00,0.0146
1990.00,0.0146
1989.00,0.0146
1988.00,0.0146
1987.00,0.0146
1986.00,0.0146
1985.00,0.0146
1984.00,0.0146
1983.00,0.0146
1982.00,0.0146
1981.00,0.0146
1980.00,0.0146
1979.00,0.0146
1978.00,0.0146
1977.00,0.0146
1976.00,0.0146
1975.00,0.0146
1974.00,0.0146
1973.00,0.0146
1972.00,0.0146
1971.00,0.0146
1970.00,0.0146
1969.00,0.0146
1968.00,0.0146
1967.00,0.0146
1966.00,0.0146
1965.00,0.0146
1964.00,0.0146
1963.00,0.0146
1962.00,0.0147
1961.00,0.0147
1960.00,0.0147
1959.00,0.0147
1958.00,0.0146
1957.00,0.0146
1956.00,0.0146
1955.00,0.0146
1954.00,0.0146
1953.00,0.0146
1952.00,0.0146
1951.00,0.0146
1950.00,0.0146
1949.00,0.0146
1948.00,0.0146
1947.00,0.0146
1946.00,0.0146
1945.00,0.0146
1944.00,0.0146
1943.00,0.0146
1942.00,0.0146
1941.00,0.0146
1940.00,0.0147
1939.00,0.0147
1938.00,0.0146
1937.00,0.0146
1936.00,0.0147
1935.00,0.0147
1934.00,0.0147
1933.00,0.0147
1932.00,0.0147
1931.00,0.0147
1930.00,0.0147
1929.00,0.0147
1928.00,0.0147
1927.00,0.0147
1926.00,0.0147
1925.00,0.0147
1924.00,0.0146
1923.00,0.0147
1922.00,0.0147
1921.00,0.0147
1920.00,0.0147
1919.00,0.0147
1918.00,0.0147
1917.00,0.0147
1916.00,0.0147
1915.00,0.0147
1914.00,0.0147
1913.00,0.0147
1912.00,0.0147
1911.00,0.0147
1910.00,0.0147
1909.00,0.0147
1908.00,0.0147
1907.00,0.0147
1906.00,0.0147
1905.00,0.0147
1904.00,0.0147
1903.00,0.0147
1902.00,0.0147
1901.00,0.0147
1900.00,0.0147
1899.00,0.0147
1898.00,0.0147
1897.00,0.0147
1896.00,0.0147
1895.00,0.0147
1894.00,0.0148
1893.00,0.0147
1892.00,0.0147
1891.00,0.0147
1890.00,0.0147
1889.00,0.0147
1888.00,0.0147
1887.00,0.0148
1886.00,0.0148
1885.00,0.0147
1884.00,0.0147
1883.00,0.0148
1882.00,0.0148
1881.00,0.0147
1880.00,0.0147
1879.00,0.0147
1878.00,0.0148
1877.00,0.0148
1876.00,0.0148
1875.00,0.0148
1874.00,0.0148
1873.00,0.0148
1872.00,0.0147
1871.00,0.0147
1870.00,0.0147
1869.00,0.0147
1868.00,0.0148
1867.00,0.0148
1866.00,0.0148
1865.00,0.0148
1864.00,0.0148
1863.00,0.0148
1862.00,0.0148
1861.00,0.0148
1860.00,0.0148
1859.00,0.0148
1858.00,0.0148
1857.00,0.0148
1856.00,0.0148
1855.00,0.0148
1854.00,0.0148
1853.00,0.0148
1852.00,0.0148
1851.00,0.0148
1850.00,0.0148
1849.00,0.0148
1848.00,0.0148
1847.00,0.0148
1846.00,0.0148
1845.00,0.0148
1844.00,0.0148
1843.00,0.0148
1842.00,0.0148
1841.00,0.0148
1840.00,0.0148
1839.00,0.0148
1838.00,0.0148
1837.00,0.0148
1836.00,0.0148
1835.00,0.0148
1834.00,0.0148
1833.00,0.0148
1832.00,0.0148
1831.00,0.0148
1830.00,0.0148
1829.00,0.0148
1828.00,0.0149
1827.00,0.0149
1826.00,0.0149
1825.00,0.0148
1824.00,0.0148
1823.00,0.0148
1822.00,0.0149
1821.00,0.0149
1820.00,0.0148
1819.00,0.0148
1818.00,0.0149
1817.00,0.0149
1816.00,0.0148
1815.00,0.0148
1814.00,0.0149
1813.00,0.0148
1812.00,0.0148
1811.00,0.0148
1810.00,0.0149
1809.00,0.0148
1808.00,0.0148
1807.00,0.0148
1806.00,0.0149
1805.00,0.0149
1804.00,0.0148
1803.00,0.0148
1802.00,0.0149
1801.00,0.0149
1800.00,0.0148
1799.00,0.0149
1798.00,0.0149
1797.00,0.0148
1796.00,0.0148
1795.00,0.0149
1794.00,0.0149
1793.00,0.0149
1792.00,0.0149
1791.00,0.0149
1790.00,0.0149
1789.00,0.0149
1788.00,0.0149
1787.00,0.0149
1786.00,0.0149
1785.00,0.0148
1784.00,0.0148
1783.00,0.0148
1782.00,0.0148
1781.00,0.0148
1780.00,0.0148
1779.00,0.0148
1778.00,0.0149
1777.00,0.0149
1776.00,0.0149
1775.00,0.0149
1774.00,0.0149
1773.00,0.0149
1772.00,0.0149
1771.00,0.0149
1770.00,0.0149
1769.00,0.0149
1768.00,0.0149
1767.00,0.0149
1766.00,0.0149
1765.00,0.0149
1764.00,0.0149
1763.00,0.0148
1762.00,0.0148
1761.00,0.0148
1760.00,0.0149
1759.00,0.0149
1758.00,0.0149
1757.00,0.0149
1756.00,0.0149
1755.00,0.0149
1754.00,0.0149
1753.00,0.0150
1752.00,0.0150
1751.00,0.0149
1750.00,0.0149
1749.00,0.0148
1748.00,0.0148
1747.00,0.0148
1746.00,0.0148
1745.00,0.0148
1744.00,0.0148
1743.00,0.0148
1742.00,0.0148
1741.00,0.0148
1740.00,0.0148
1739.00,0.0148
1738.00,0.0148
1737.00,0.0148
1736.00,0.0149
1735.00,0.0149
1734.00,0.0149
1733.00,0.0148
1732.00,0.0147
1731.00,0.0147
1730.00,0.0147
1729.00,0.0148
1728.00,0.0148
1727.00,0.0148
1726.00,0.0147
1725.00,0.0147
1724.00,0.0147
1723.00,0.0147
1722.00,0.0148
1721.00,0.0147
1720.00,0.0147
1719.00,0.0147
1718.00,0.0148
1717.00,0.0148
1716.00,0.0147
1715.00,0.0147
1714.00,0.0148
1713.00,0.0147
1712.00,0.0147
1711.00,0.0147
1710.00,0.0147
1709.00,0.0147
1708.00,0.0147
1707.00,0.0147
1706.00,0.0147
1705.00,0.0147
1704.00,0.0147
1703.00,0.0147
1702.00,0.0147
1701.00,0.0147
1700.00,0.0147
1699.00,0.0147
1698.00,0.0147
1697.00,0.0147
1696.00,0.0147
1695.00,0.0147
1694.00,0.0147
1693.00,0.0147
1692.00,0.0147
1691.00,0.0146
1690.00,0.0146
1689.00,0.0146
1688.00,0.0146
1687.00,0.0147
1686.00,0.0146
1685.00,0.0146
1684.00,0.0146
1683.00,0.0146
1682.00,0.0146
1681.00,0.0146
1680.00,0.0146
1679.00,0.0146
1678.00,0.0146
1677.00,0.0146
1676.00,0.0146
1675.00,0.0146
1674.00,0.0145
1673.00,0.0145
1672.00,0.0146
1671.00,0.0145
1670.00,0.0145
1669.00,0.0145
1668.00,0.0145
1667.00,0.0145
1666.00,0.0145
1665.00,0.0145
1664.00,0.0145
1663.00,0.0145
1662.00,0.0144
1661.00,0.0145
1660.00,0.0145
1659.00,0.0145
1658.00,0.0144
1657.00,0.0144
1656.00,0.0144
1655.00,0.0143
1654.00,0.0143
1653.00,0.0143
1652.00,0.0143
1651.00,0.0143
1650.00,0.0143
1649.00,0.0144
1648.00,0.0144
1647.00,0.0144
1646.00,0.0144
1645.00,0.0144
1644.00,0.0144
1643.00,0.0144
1642.00,0.0144
1641.00,0.0144
1640.00,0.0144
1639.00,0.0144
1638.00,0.0144
1637.00,0.0144
1636.00,0.0144
1635.00,0.0144
1634.00,0.0144
1633.00,0.0144
1632.00,0.0144
1631.00,0.0144
1630.00,0.0144
1629.00,0.0144
1628.00,0.0144
1627.00,0.0144
1626.00,0.0144
1625.00,0.0144
1624.00,0.0145
1623.00,0.0145
1622.00,0.0145
1621.00,0.0145
1620.00,0.0145
1619.00,0.0145
1618.00,0.0145
1617.00,0.0145
1616.00,0.0145
1615.00,0.0145
1614.00,0.0145
1613.00,0.0145
1612.00,0.0146
1611.00,0.0146
1610.00,0.0145
1609.00,0.0145
1608.00,0.0146
1607.00,0.0146
1606.00,0.0146
1605.00,0.0146
1604.00,0.0146
1603.00,0.0146
1602.00,0.0146
1601.00,0.0146
1600.00,0.0147
1599.00,0.0147
1598.00,0.0146
1597.00,0.0147
1596.00,0.0147
1595.00,0.0147
1594.00,0.0147
1593.00,0.0147
1592.00,0.0147
1591.00,0.0147
1590.00,0.0147
1589.00,0.0147
1588.00,0.0147
1587.00,0.0147
1586.00,0.0147
1585.00,0.0147
1584.00,0.0147
1583.00,0.0147
1582.00,0.0147
1581.00,0.0147
1580.00,0.0147
1579.00,0.0147
1578.00,0.0147
1577.00,0.0147
1576.00,0.0147
1575.00,0.0147
1574.00,0.0147
1573.00,0.0147
1572.00,0.0147
1571.00,0.0147
1570.00,0.0147
1569.00,0.0147
1568.00,0.0148
1567.00,0.0148
1566.00,0.0147
1565.00,0.0147
1564.00,0.0147
1563.00,0.0147
1562.00,0.0147
1561.00,0.0147
1560.00,0.0147
1559.00,0.0147
1558.00,0.0147
1557.00,0.0147
1556.00,0.0148
1555.00,0.0148
1554.00,0.0148
1553.00,0.0148
1552.00,0.0148
1551.00,0.0148
1550.00,0.0148
1549.00,0.0148
1548.00,0.0148
1547.00,0.0148
1546.00,0.0148
1545.00,0.0147
1544.00,0.0147
1543.00,0.0148
1542.00,0.0148
1541.00,0.0148
1540.00,0.0148
1539.00,0.0148
1538.00,0.0147
1537.00,0.0147
1536.00,0.0148
1535.00,0.0148
1534.00,0.0148
1533.00,0.0148
1532.00,0.0148
1531.00,0.0148
1530.00,0.0148
1529.00,0.0148
1528.00,0.0148
1527.00,0.0148
1526.00,0.0148
1525.00,0.0148
1524.00,0.0148
1523.00,0.0148
1522.00,0.0148
1521.00,0.0148
1520.00,0.0148
1519.00,0.0148
1518.00,0.0148
1517.00,0.0148
1516.00,0.0148
1515.00,0.0148
1514.00,0.0149
1513.00,0.0149
1512.00,0.0148
1511.00,0.0148
1510.00,0.0148
1509.00,0.0148
1508.00,0.0148
1507.00,0.0148
1506.00,0.0148
1505.00,0.0148
1504.00,0.0147
1503.00,0.0147
1502.00,0.0148
1501.00,0.0148
1500.00,0.0148
1499.00,0.0147
1498.00,0.0147
1497.00,0.0147
1496.00,0.0146
1495.00,0.0146
1494.00,0.0146
1493.00,0.0146
1492.00,0.0146
1491.00,0.0146
1490.00,0.0146
1489.00,0.0146
1488.00,0.0146
1487.00,0.0147
1486.00,0.0147
1485.00,0.0147
1484.00,0.0147
1483.00,0.0147
1482.00,0.0147
1481.00,0.0147
1480.00,0.0147
1479.00,0.0147
1478.00,0.0147
1477.00,0.0147
1476.00,0.0147
1475.00,0.0148
1474.00,0.0148
1473.00,0.0148
1472.00,0.0148
1471.00,0.0147
1470.00,0.0147
1469.00,0.0147
1468.00,0.0147
1467.00,0.0147
1466.00,0.0147
1465.00,0.0147
1464.00,0.0147
1463.00,0.0147
1462.00,0.0147
1461.00,0.0147
1460.00,0.0147
1459.00,0.0147
1458.00,0.0147
1457.00,0.0147
1456.00,0.0147
1455.00,0.0146
1454.00,0.0146
1453.00,0.0146
1452.00,0.0146
1451.00,0.0145
1450.00,0.0145
1449.00,0.0146
1448.00,0.0146
1447.00,0.0146
1446.00,0.0146
1445.00,0.0146
1444.00,0.0146
1443.00,0.0146
1442.00,0.0146
1441.00,0.0146
1440.00,0.0146
1439.00,0.0146
1438.00,0.0146
1437.00,0.0147
1436.00,0.0147
1435.00,0.0146
1434.00,0.0147
1433.00,0.0147
1432.00,0.0147
1431.00,0.0146
1430.00,0.0146
1429.00,0.0147
1428.00,0.0147
1427.00,0.0146
1426.00,0.0146
1425.00,0.0147
1424.00,0.0147
1423.00,0.0146
1422.00,0.0147
1421.00,0.0147
1420.00,0.0146
1419.00,0.0146
1418.00,0.0146
1417.00,0.0146
1416.00,0.0146
1415.00,0.0146
1414.00,0.0145
1413.00,0.0145
1412.00,0.0145
1411.00,0.0145
1410.00,0.0145
1409.00,0.0145
1408.00,0.0145
1407.00,0.0144
1406.00,0.0144
1405.00,0.0144
1404.00,0.0144
1403.00,0.0144
1402.00,0.0144
1401.00,0.0144
1400.00,0.0144
1399.00,0.0144
1398.00,0.0144
1397.00,0.0144
1396.00,0.0144
1395.00,0.0144
1394.00,0.0143
1393.00,0.0144
1392.00,0.0145
1391.00,0.0145
1390.00,0.0145
1389.00,0.0145
1388.00,0.0145
1387.00,0.0145
1386.00,0.0145
1385.00,0.0144
1384.00,0.0144
1383.00,0.0144
1382.00,0.0144
1381.00,0.0144
1380.00,0.0144
1379.00,0.0145
1378.00,0.0145
1377.00,0.0145
1376.00,0.0145
1375.00,0.0145
1374.00,0.0145
1373.00,0.0145
1372.00,0.0145
1371.00,0.0145
1370.00,0.0145
1369.00,0.0145
1368.00,0.0145
1367.00,0.0146
1366.00,0.0145
1365.00,0.0145
1364.00,0.0145
1363.00,0.0145
1362.00,0.0145
1361.00,0.0146
1360.00,0.0146
1359.00,0.0146
1358.00,0.0146
1357.00,0.0146
1356.00,0.0145
1355.00,0.0145
1354.00,0.0145
1353.00,0.0145
1352.00,0.0146
1351.00,0.0145
1350.00,0.0145
1349.00,0.0145
1348.00,0.0145
1347.00,0.0145
1346.00,0.0145
1345.00,0.0145
1344.00,0.0145
1343.00,0.0145
1342.00,0.0145
1341.00,0.0145
1340.00,0.0145
1339.00,0.0145
1338.00,0.0145
1337.00,0.0145
1336.00,0.0145
1335.00,0.0145
1334.00,0.0145
1333.00,0.0145
1332.00,0.0145
1331.00,0.0145
1330.00,0.0145
1329.00,0.0145
1328.00,0.0145
1327.00,0.0145
1326.00,0.0145
1325.00,0.0145
1324.00,0.0145
1323.00,0.0145
1322.00,0.0145
1321.00,0.0145
1320.00,0.0145
1319.00,0.0145
1318.00,0.0145
1317.00,0.0145
1316.00,0.0145
1315.00,0.0145
1314.00,0.0145
1313.00,0.0145
1312.00,0.0145
1311.00,0.0145
1310.00,0.0145
1309.00,0.0145
1308.00,0.0145
1307.00,0.0145
1306.00,0.0145
1305.00,0.0145
1304.00,0.0145
1303.00,0.0145
1302.00,0.0145
1301.00,0.0145
1300.00,0.0145
1299.00,0.0144
1298.00,0.0144
1297.00,0.0144
1296.00,0.0144
1295.00,0.0144
1294.00,0.0144
1293.00,0.0144
1292.00,0.0144
1291.00,0.0144
1290.00,0.0144
1289.00,0.0144
1288.00,0.0144
1287.00,0.0144
1286.00,0.0144
1285.00,0.0144
1284.00,0.0144
1283.00,0.0144
1282.00,0.0144
1281.00,0.0144
1280.00,0.0144
1279.00,0.0144
1278.00,0.0144
1277.00,0.0144
1276.00,0.0144
1275.00,0.0144
1274.00,0.0144
1273.00,0.0144
1272.00,0.0144
1271.00,0.0144
1270.00,0.0144
1269.00,0.0144
1268.00,0.0144
1267.00,0.0143
1266.00,0.0143
1265.00,0.0143
1264.00,0.0143
1263.00,0.0143
1262.00,0.0142
1261.00,0.0142
1260.00,0.0142
1259.00,0.0142
1258.00,0.0142
1257.00,0.0142
1256.00,0.0142
1255.00,0.0142
1254.00,0.0141
1253.00,0.0141
1252.00,0.0141
1251.00,0.0141
1250.00,0.0141
1249.00,0.0141
1248.00,0.0141
1247.00,0.0141
1246.00,0.0141
1245.00,0.0141
1244.00,0.0141
1243.00,0.0141
1242.00,0.0141
1241.00,0.0141
1240.00,0.0141
1239.00,0.0141
1238.00,0.0142
1237.00,0.0142
1236.00,0.0142
1235.00,0.0141
1234.00,0.0141
1233.00,0.0141
1232.00,0.0141
1231.00,0.0141
1230.00,0.0141
1229.00,0.0141
1228.00,0.0141
1227.00,0.0141
1226.00,0.0141
1225.00,0.0141
1224.00,0.0141
1223.00,0.0141
1222.00,0.0141
1221.00,0.0142
1220.00,0.0142
1219.00,0.0142
1218.00,0.0142
1217.00,0.0142
1216.00,0.0142
1215.00,0.0142
1214.00,0.0142
1213.00,0.0142
1212.00,0.0142
1211.00,0.0142
1210.00,0.0142
1209.00,0.0142
1208.00,0.0142
1207.00,0.0142
1206.00,0.0142
1205.00,0.0142
1204.00,0.0142
1203.00,0.0142
1202.00,0.0142
1201.00,0.0142
1200.00,0.0142
1199.00,0.0142
1198.00,0.0142
1197.00,0.0142
1196.00,0.0142
1195.00,0.0142
1194.00,0.0142
1193.00,0.0142
1192.00,0.0142
1191.00,0.0142
1190.00,0.0142
1189.00,0.0142
1188.00,0.0142
1187.00,0.0142
1186.00,0.0142
1185.00,0.0142
1184.00,0.0142
1183.00,0.0142
1182.00,0.0142
1181.00,0.0142
1180.00,0.0142
1179.00,0.0142
1178.00,0.0142
1177.00,0.0142
1176.00,0.0142
1175.00,0.0142
1174.00,0.0142
1173.00,0.0142
1172.00,0.0142
1171.00,0.0141
1170.00,0.0141
1169.00,0.0141
1168.00,0.0142
1167.00,0.0142
1166.00,0.0142
1165.00,0.0142
1164.00,0.0142
1163.00,0.0141
1162.00,0.0141
1161.00,0.0141
1160.00,0.0142
1159.00,0.0141
1158.00,0.0141
1157.00,0.0141
1156.00,0.0141
1155.00,0.0141
1154.00,0.0141
1153.00,0.0141
1152.00,0.0141
1151.00,0.0141
1150.00,0.0141
1149.00,0.0141
1148.00,0.0141
1147.00,0.0141
1146.00,0.0141
1145.00,0.0141
1144.00,0.0141
1143.00,0.0141
1142.00,0.0141
1141.00,0.0141
1140.00,0.0141
1139.00,0.0141
1138.00,0.0141
1137.00,0.0141
1136.00,0.0141
1135.00,0.0141
1134.00,0.0140
1133.00,0.0140
1132.00,0.0140
1131.00,0.0140
1130.00,0.0140
1129.00,0.0140
1128.00,0.0140
1127.00,0.0140
1126.00,0.0140
1125.00,0.0140
1124.00,0.0140
1123.00,0.0140
1122.00,0.0140
1121.00,0.0140
1120.00,0.0140
1119.00,0.0140
1118.00,0.0140
1117.00,0.0140
1116.00,0.0140
1115.00,0.0139
1114.00,0.0139
1113.00,0.0139
1112.00,0.0139
1111.00,0.0139
1110.00,0.0139
1109.00,0.0139
1108.00,0.0139
1107.00,0.0139
1106.00,0.0138
1105.00,0.0138
1104.00,0.0138
1103.00,0.0138
1102.00,0.0138
1101.00,0.0138
1100.00,0.0138
1099.00,0.0138
1098.00,0.0138
1097.00,0.0138
1096.00,0.0137
1095.00,0.0137
1094.00,0.0137
1093.00,0.0137
1092.00,0.0137
1091.00,0.0136
1090.00,0.0136
1089.00,0.0135
1088.00,0.0135
1087.00,0.0135
1086.00,0.0134
1085.00,0.0134
1084.00,0.0134
1083.00,0.0133
1082.00,0.0133
1081.00,0.0132
1080.00,0.0132
1079.00,0.0132
1078.00,0.0132
1077.00,0.0132
1076.00,0.0132
1075.00,0.0132
1074.00,0.0132
1073.00,0.0132
1072.00,0.0132
1071.00,0.0132
1070.00,0.0132
1069.00,0.0132
1068.00,0.0131
1067.00,0.0131
1066.00,0.0131
1065.00,0.0131
1064.00,0.0132
1063.00,0.0132
1062.00,0.0133
1061.00,0.0133
1060.00,0.0133
1059.00,0.0132
1058.00,0.0132
1057.00,0.0132
1056.00,0.0132
1055.00,0.0132
1054.00,0.0132
1053.00,0.0132
1052.00,0.0132
1051.00,0.0132
1050.00,0.0132
1049.00,0.0132
1048.00,0.0132
1047.00,0.0132
1046.00,0.0133
1045.00,0.0133
1044.00,0.0133
1043.00,0.0134
1042.00,0.0134
1041.00,0.0134
1040.00,0.0134
1039.00,0.0135
1038.00,0.0135
1037.00,0.0135
1036.00,0.0136
1035.00,0.0136
1034.00,0.0137
1033.00,0.0137
1032.00,0.0138
1031.00,0.0138
1030.00,0.0138
1029.00,0.0138
1028.00,0.0138
1027.00,0.0138
1026.00,0.0138
1025.00,0.0139
1024.00,0.0139
1023.00,0.0140
1022.00,0.0140
1021.00,0.0140
1020.00,0.0140
1019.00,0.0140
1018.00,0.0140
1017.00,0.0140
1016.00,0.0141
1015.00,0.0141
1014.00,0.0141
1013.00,0.0141
1012.00,0.0142
1011.00,0.0142
1010.00,0.0142
1009.00,0.0142
1008.00,0.0142
1007.00,0.0143
1006.00,0.0143
1005.00,0.0143
1004.00,0.0143
1003.00,0.0143
1002.00,0.0143
1001.00,0.0144
1000.00,0.0144
999.00,0.0144
998.00,0.0144
997.00,0.0144
996.00,0.0144
995.00,0.0144
994.00,0.0144
993.00,0.0144
992.00,0.0144
991.00,0.0144
990.00,0.0144
989.00,0.0144
988.00,0.0145
987.00,0.0145
986.00,0.0145
985.00,0.0145
984.00,0.0145
983.00,0.0145
982.00,0.0145
981.00,0.0145
980.00,0.0145
979.00,0.0145
978.00,0.0145
977.00,0.0145
976.00,0.0145
975.00,0.0145
974.00,0.0145
973.00,0.0145
972.00,0.0145
971.00,0.0145
970.00,0.0145
969.00,0.0146
968.00,0.0146
967.00,0.0146
966.00,0.0146
965.00,0.0146
964.00,0.0146
963.00,0.0146
962.00,0.0146
961.00,0.0146
960.00,0.0146
959.00,0.0146
958.00,0.0146
957.00,0.0146
956.00,0.0146
955.00,0.0146
954.00,0.0146
953.00,0.0146
952.00,0.0146
951.00,0.0146
950.00,0.0146
949.00,0.0146
948.00,0.0146
947.00,0.0146
946.00,0.0146
945.00,0.0146
944.00,0.0146
943.00,0.0146
942.00,0.0146
941.00,0.0146
940.00,0.0146
939.00,0.0146
938.00,0.0146
937.00,0.0146
936.00,0.0146
935.00,0.0146
934.00,0.0146
933.00,0.0146
932.00,0.0146
931.00,0.0146
930.00,0.0146
929.00,0.0146
928.00,0.0146
927.00,0.0146
926.00,0.0146
925.00,0.0146
924.00,0.0146
923.00,0.0146
922.00,0.0146
921.00,0.0146
920.00,0.0146
919.00,0.0146
918.00,0.0146
917.00,0.0146
916.00,0.0146
915.00,0.0146
914.00,0.0146
913.00,0.0146
912.00,0.0145
911.00,0.0145
910.00,0.0145
909.00,0.0145
908.00,0.0145
907.00,0.0145
906.00,0.0145
905.00,0.0145
904.00,0.0144
903.00,0.0144
902.00,0.0144
901.00,0.0144
900.00,0.0144
899.00,0.0144
898.00,0.0144
897.00,0.0144
896.00,0.0144
895.00,0.0144
894.00,0.0144
893.00,0.0144
892.00,0.0144
891.00,0.0144
890.00,0.0144
889.00,0.0144
888.00,0.0144
887.00,0.0144
886.00,0.0144
885.00,0.0144
884.00,0.0144
883.00,0.0144
882.00,0.0144
881.00,0.0144
880.00,0.0144
879.00,0.0144
878.00,0.0144
877.00,0.0144
876.00,0.0144
875.00,0.0144
874.00,0.0144
873.00,0.0144
872.00,0.0144
871.00,0.0144
870.00,0.0144
869.00,0.0144
868.00,0.0144
867.00,0.0144
866.00,0.0144
865.00,0.0144
864.00,0.0144
863.00,0.0144
862.00,0.0144
861.00,0.0144
860.00,0.0144
859.00,0.0144
858.00,0.0144
857.00,0.0144
856.00,0.0144
855.00,0.0144
854.00,0.0144
853.00,0.0143
852.00,0.0143
851.00,0.0143
850.00,0.0143
849.00,0.0143
848.00,0.0143
847.00,0.0143
846.00,0.0143
845.00,0.0143
844.00,0.0143
843.00,0.0143
842.00,0.0143
841.00,0.0143
840.00,0.0143
839.00,0.0143
838.00,0.0143
837.00,0.0143
836.00,0.0143
835.00,0.0143
834.00,0.0142
833.00,0.0142
832.00,0.0142
831.00,0.0142
830.00,0.0142
829.00,0.0142
828.00,0.0142
827.00,0.0142
826.00,0.0141
825.00,0.0141
824.00,0.0141
823.00,0.0141
822.00,0.0141
821.00,0.0141
820.00,0.0141
819.00,0.0141
818.00,0.0141
817.00,0.0141
816.00,0.0141
815.00,0.0141
814.00,0.0142
813.00,0.0142
812.00,0.0141
811.00,0.0141
810.00,0.0141
809.00,0.0141
808.00,0.0141
807.00,0.0141
806.00,0.0141
805.00,0.0141
804.00,0.0141
803.00,0.0141
802.00,0.0141
801.00,0.0141
800.00,0.0140
799.00,0.0140
798.00,0.0140
797.00,0.0140
796.00,0.0140
795.00,0.0140
794.00,0.0140
793.00,0.0140
792.00,0.0140
791.00,0.0140
790.00,0.0140
789.00,0.0141
788.00,0.0141
787.00,0.0141
786.00,0.0141
785.00,0.0141
784.00,0.0141
783.00,0.0141
782.00,0.0141
781.00,0.0141
780.00,0.0140
779.00,0.0140
778.00,0.0140
777.00,0.0140
776.00,0.0140
775.00,0.0140
774.00,0.0140
773.00,0.0141
772.00,0.0141
771.00,0.0140
770.00,0.0140
769.00,0.0140
768.00,0.0140
767.00,0.0140
766.00,0.0140
765.00,0.0140
764.00,0.0140
763.00,0.0140
762.00,0.0140
761.00,0.0140
760.00,0.0139
759.00,0.0140
758.00,0.0140
757.00,0.0140
756.00,0.0140
755.00,0.0139
754.00,0.0139
753.00,0.0139
752.00,0.0139
751.00,0.0139
750.00,0.0139
749.00,0.0139
748.00,0.0139
747.00,0.0139
746.00,0.0139
745.00,0.0139
744.00,0.0139
743.00,0.0139
742.00,0.0139
741.00,0.0139
740.00,0.0139
739.00,0.0139
738.00,0.0139
737.00,0.0139
736.00,0.0139
735.00,0.0139
734.00,0.0139
733.00,0.0139
732.00,0.0139
731.00,0.0139
730.00,0.0139
729.00,0.0139
728.00,0.0139
727.00,0.0139
726.00,0.0139
725.00,0.0139
724.00,0.0139
723.00,0.0139
722.00,0.0139
721.00,0.0139
720.00,0.0139
719.00,0.0139
718.00,0.0139
717.00,0.0138
716.00,0.0138
715.00,0.0138
714.00,0.0137
713.00,0.0137
712.00,0.0137
711.00,0.0138
710.00,0.0138
709.00,0.0138
708.00,0.0138
707.00,0.0138
706.00,0.0137
705.00,0.0137
704.00,0.0137
703.00,0.0137
702.00,0.0138
701.00,0.0138
700.00,0.0138
699.00,0.0138
698.00,0.0138
697.00,0.0137
696.00,0.0137
695.00,0.0137
694.00,0.0137
693.00,0.0137
692.00,0.0137
691.00,0.0137
690.00,0.0137
689.00,0.0136
688.00,0.0136
687.00,0.0136
686.00,0.0136
685.00,0.0135
684.00,0.0135
683.00,0.0135
682.00,0.0135
681.00,0.0135
680.00,0.0135
679.00,0.0134
678.00,0.0135
677.00,0.0135
676.00,0.0135
675.00,0.0135
674.00,0.0135
673.00,0.0134
672.00,0.0133
671.00,0.0131
670.00,0.0129
669.00,0.0127
668.00,0.0127
667.00,0.0128
666.00,0.0129
665.00,0.0130
664.00,0.0132
663.00,0.0133
662.00,0.0133
661.00,0.0132
660.00,0.0132
659.00,0.0133
658.00,0.0132
657.00,0.0132
656.00,0.0133
655.00,0.0133
654.00,0.0132
653.00,0.0133
652.00,0.0133
651.00,0.0133
650.00,0.0133
649.00,0.0133
648.00,0.0133
647.00,0.0133
646.00,0.0132
645.00,0.0132
644.00,0.0132
643.00,0.0132
642.00,0.0132
641.00,0.0132
640.00,0.0133
639.00,0.0133
638.00,0.0132
637.00,0.0132
636.00,0.0132
635.00,0.0132
634.00,0.0132
633.00,0.0132
632.00,0.0132
631.00,0.0131
630.00,0.0131
629.00,0.0131
628.00,0.0131
627.00,0.0130
626.00,0.0130
625.00,0.0129
624.00,0.0129
623.00,0.0129
622.00,0.0129
621.00,0.0129
620.00,0.0129
619.00,0.0129
618.00,0.0129
617.00,0.0129
616.00,0.0129
615.00,0.0128
614.00,0.0127
613.00,0.0127
612.00,0.0127
611.00,0.0127
610.00,0.0127
609.00,0.0127
608.00,0.0127
607.00,0.0127
606.00,0.0127
605.00,0.0127
604.00,0.0127
603.00,0.0127
602.00,0.0127
601.00,0.0127
600.00,0.0128
599.00,0.0128
598.00,0.0128
597.00,0.0128
596.00,0.0128
595.00,0.0128
594.00,0.0128
593.00,0.0127
592.00,0.0128
591.00,0.0128
590.00,0.0128
589.00,0.0128
588.00,0.0128
587.00,0.0128
586.00,0.0127
585.00,0.0127
584.00,0.0127
583.00,0.0126
582.00,0.0126
581.00,0.0126
580.00,0.0126
579.00,0.0126
578.00,0.0125
577.00,0.0125
576.00,0.0125
575.00,0.0125
574.00,0.0125
573.00,0.0125
572.00,0.0125
571.00,0.0124
570.00,0.0124
569.00,0.0124
568.00,0.0125
567.00,0.0125
566.00,0.0125
565.00,0.0124
564.00,0.0124
563.00,0.0124
562.00,0.0123
561.00,0.0123
560.00,0.0123
559.00,0.0123
558.00,0.0123
557.00,0.0123
556.00,0.0124
555.00,0.0124
554.00,0.0124
553.00,0.0124
552.00,0.0124
551.00,0.0125
550.00,0.0125
549.00,0.0124
548.00,0.0124
547.00,0.0124
546.00,0.0124
545.00,0.0124
544.00,0.0124
543.00,0.0124
542.00,0.0125
541.00,0.0125
540.00,0.0125
539.00,0.0126
538.00,0.0126
537.00,0.0126
536.00,0.0126
535.00,0.0126
534.00,0.0126
533.00,0.0126
532.00,0.0126
531.00,0.0125
530.00,0.0125
529.00,0.0124
528.00,0.0124
527.00,0.0124
526.00,0.0124
525.00,0.0124
524.00,0.0124
523.00,0.0124
522.00,0.0124
521.00,0.0124
520.00,0.0124
519.00,0.0124
518.00,0.0123
517.00,0.0123
516.00,0.0124
515.00,0.0124
514.00,0.0124
513.00,0.0124
512.00,0.0124
511.00,0.0124
510.00,0.0124
509.00,0.0124
508.00,0.0124
507.00,0.0124
506.00,0.0124
505.00,0.0124
504.00,0.0124
503.00,0.0124
502.00,0.0124
501.00,0.0124
500.00,0.0123
