Created as New Dataset,Sample 014 By Analyst Date Friday, March 28 2025
cm-1,A
4000.00,0.0125
3999.00,0.0125
3998.00,0.0125
3997.00,0.0125
3996.00,0.0125
3995.00,0.0125
3994.00,0.0126
3993.00,0.0126
3992.00,0.0126
3991.00,0.0125
3990.00,0.0125
3989.00,0.0126
3988.00,0.0126
3987.00,0.0126
3986.00,0.0126
3985.00,0.0126
3984.00,0.0126
3983.00,0.0126
3982.00,0.0126
3981.00,0.0126
3980.00,0.0126
3979.00,0.0126
3978.00,0.0126
3977.00,0.0126
3976.00,0.0126
3975.00,0.0126
3974.00,0.0126
3973.00,0.0126
3972.00,0.0126
3971.00,0.0126
3970.00,0.0126
3969.00,0.0126
3968.00,0.0126
3967.00,0.0126
3966.00,0.0126
3965.00,0.0126
3964.00,0.0126
3963.00,0.0126
3962.00,0.0126
3961.00,0.0127
3960.00,0.0127
3959.00,0.0126
3958.00,0.0126
3957.00,0.0126
3956.00,0.0126
3955.00,0.0127
3954.00,0.0127
3953.00,0.0127
3952.00,0.0127
3951.00,0.0127
3950.00,0.0128
3949.00,0.0128
3948.00,0.0128
3947.00,0.0128
3946.00,0.0128
3945.00,0.0128
3944.00,0.0128
3943.00,0.0128
3942.00,0.0128
3941.00,0.0128
3940.00,0.0128
3939.00,0.0127
3938.00,0.0127
3937.00,0.0128
3936.00,0.0128
3935.00,0.0128
3934.00,0.0129
3933.00,0.0129
3932.00,0.0129
3931.00,0.0129
3930.00,0.0129
3929.00,0.0129
3928.00,0.0129
3927.00,0.0129
3926.00,0.0129
3925.00,0.0129
3924.00,0.0129
3923.00,0.0130
3922.00,0.0130
3921.00,0.0130
3920.00,0.0130
3919.00,0.0130
3918.00,0.0130
3917.00,0.0129
3916.00,0.0129
3915.00,0.0129
3914.00,0.0128
3913.00,0.0128
3912.00,0.0127
3911.00,0.0128
3910.00,0.0128
3909.00,0.0129
3908.00,0.0130
3907.00,0.0131
3906.00,0.0132
3905.00,0.0133
3904.00,0.0135
3903.00,0.0135
3902.00,0.0135
3901.00,0.0133
3900.00,0.0132
3899.00,0.0132
3898.00,0.0132
3897.00,0.0132
3896.00,0.0131
3895.00,0.0131
3894.00,0.0131
3893.00,0.0130
3892.00,0.0130
3891.00,0.0131
3890.00,0.0132
3889.00,0.0133
3888.00,0.0132
3887.00,0.0131
3886.00,0.0132
3885.00,0.0133
3884.00,0.0134
3883.00,0.0133
3882.00,0.0131
3881.00,0.0130
3880.00,0.0131
3879.00,0.0133
3878.00,0.0132
3877.00,0.0131
3876.00,0.0130
3875.00,0.0131
3874.00,0.0133
3873.00,0.0135
3872.00,0.0134
3871.00,0.0132
3870.00,0.0133
3869.00,0.0135
3868.00,0.0136
3867.00,0.0133
3866.00,0.0131
3865.00,0.0132
3864.00,0.0133
3863.00,0.0133
3862.00,0.0132
3861.00,0.0131
3860.00,0.0132
3859.00,0.0133
3858.00,0.0135
3857.00,0.0138
3856.00,0.0141
3855.00,0.0140
3854.00,0.0138
3853.00,0.0138
3852.00,0.0141
3851.00,0.0141
3850.00,0.0137
3849.00,0.0134
3848.00,0.0133
3847.00,0.0132
3846.00,0.0131
3845.00,0.0131
3844.00,0.0131
3843.00,0.0133
3842.00,0.0134
3841.00,0.0134
3840.00,0.0134
3839.00,0.0134
3838.00,0.0135
3837.00,0.0135
3836.00,0.0135
3835.00,0.0134
3834.00,0.0133
3833.00,0.0132
3832.00,0.0132
3831.00,0.0132
3830.00,0.0132
3829.00,0.0131
3828.00,0.0130
3827.00,0.0130
3826.00,0.0132
3825.00,0.0134
3824.00,0.0134
3823.00,0.0132
3822.00,0.0132
3821.00,0.0133
3820.00,0.0136
3819.00,0.0136
3818.00,0.0134
3817.00,0.0132
3816.00,0.0133
3815.00,0.0135
3814.00,0.0135
3813.00,0.0133
3812.00,0.0131
3811.00,0.0132
3810.00,0.0133
3809.00,0.0132
3808.00,0.0131
3807.00,0.0132
3806.00,0.0134
3805.00,0.0135
3804.00,0.0134
3803.00,0.0132
3802.00,0.0133
3801.00,0.0135
3800.00,0.0136
3799.00,0.0135
3798.00,0.0132
3797.00,0.0131
3796.00,0.0132
3795.00,0.0132
3794.00,0.0131
3793.00,0.0130
3792.00,0.0130
3791.00,0.0130
3790.00,0.0131
3789.00,0.0131
3788.00,0.0130
3787.00,0.0130
3786.00,0.0130
3785.00,0.0131
3784.00,0.0131
3783.00,0.0132
3782.00,0.0131
3781.00,0.0131
3780.00,0.0130
3779.00,0.0131
3778.00,0.0131
3777.00,0.0131
3776.00,0.0131
3775.00,0.0131
3774.00,0.0132
3773.00,0.0132
3772.00,0.0132
3771.00,0.0131
3770.00,0.0132
3769.00,0.0133
3768.00,0.0133
3767.00,0.0132
3766.00,0.0132
3765.00,0.0132
3764.00,0.0133
3763.00,0.0133
3762.00,0.0132
3761.00,0.0132
3760.00,0.0132
3759.00,0.0133
3758.00,0.0133
3757.00,0.0134
3756.00,0.0136
3755.00,0.0137
3754.00,0.0139
3753.00,0.0140
3752.00,0.0140
3751.00,0.0139
3750.00,0.0140
3749.00,0.0142
3748.00,0.0143
3747.00,0.0142
3746.00,0.0140
3745.00,0.0139
3744.00,0.0140
3743.00,0.0142
3742.00,0.0141
3741.00,0.0138
3740.00,0.0137
3739.00,0.0139
3738.00,0.0140
3737.00,0.0140
3736.00,0.0139
3735.00,0.0138
3734.00,0.0137
3733.00,0.0136
3732.00,0.0135
3731.00,0.0136
3730.00,0.0136
3729.00,0.0136
3728.00,0.0135
3727.00,0.0135
3726.00,0.0136
3725.00,0.0136
3724.00,0.0135
3723.00,0.0134
3722.00,0.0134
3721.00,0.0134
3720.00,0.0134
3719.00,0.0134
3718.00,0.0134
3717.00,0.0135
3716.00,0.0135
3715.00,0.0136
3714.00,0.0136
3713.00,0.0135
3712.00,0.0135
3711.00,0.0135
3710.00,0.0134
3709.00,0.0134
3708.00,0.0134
3707.00,0.0133
3706.00,0.0133
3705.00,0.0133
3704.00,0.0132
3703.00,0.0131
3702.00,0.0131
3701.00,0.0132
3700.00,0.0132
3699.00,0.0132
3698.00,0.0131
3697.00,0.0131
3696.00,0.0132
3695.00,0.0133
3694.00,0.0133
3693.00,0.0134
3692.00,0.0135
3691.00,0.0135
3690.00,0.0134
3689.00,0.0134
3688.00,0.0135
3687.00,0.0136
3686.00,0.0135
3685.00,0.0133
3684.00,0.0132
3683.00,0.0132
3682.00,0.0132
3681.00,0.0132
3680.00,0.0134
3679.00,0.0136
3678.00,0.0137
3677.00,0.0136
3676.00,0.0135
3675.00,0.0137
3674.00,0.0139
3673.00,0.0138
3672.00,0.0136
3671.00,0.0134
3670.00,0.0135
3669.00,0.0136
3668.00,0.0135
3667.00,0.0133
3666.00,0.0131
3665.00,0.0131
3664.00,0.0130
3663.00,0.0130
3662.00,0.0130
3661.00,0.0130
3660.00,0.0131
3659.00,0.0132
3658.00,0.0132
3657.00,0.0131
3656.00,0.0132
3655.00,0.0134
3654.00,0.0135
3653.00,0.0135
3652.00,0.0136
3651.00,0.0138
3650.00,0.0138
3649.00,0.0137
3648.00,0.0136
3647.00,0.0137
3646.00,0.0136
3645.00,0.0135
3644.00,0.0133
3643.00,0.0132
3642.00,0.0131
3641.00,0.0131
3640.00,0.0130
3639.00,0.0130
3638.00,0.0130
3637.00,0.0131
3636.00,0.0131
3635.00,0.0131
3634.00,0.0133
3633.00,0.0135
3632.00,0.0136
3631.00,0.0137
3630.00,0.0136
3629.00,0.0135
3628.00,0.0136
3627.00,0.0136
3626.00,0.0134
3625.00,0.0132
3624.00,0.0132
3623.00,0.0133
3622.00,0.0133
3621.00,0.0133
3620.00,0.0133
3619.00,0.0133
3618.00,0.0134
3617.00,0.0135
3616.00,0.0134
3615.00,0.0134
3614.00,0.0134
3613.00,0.0134
3612.00,0.0135
3611.00,0.0134
3610.00,0.0134
3609.00,0.0133
3608.00,0.0133
3607.00,0.0132
3606.00,0.0132
3605.00,0.0131
3604.00,0.0130
3603.00,0.0130
3602.00,0.0130
3601.00,0.0130
3600.00,0.0130
3599.00,0.0131
3598.00,0.0131
3597.00,0.0131
3596.00,0.0131
3595.00,0.0131
3594.00,0.0132
3593.00,0.0132
3592.00,0.0133
3591.00,0.0133
3590.00,0.0134
3589.00,0.0134
3588.00,0.0133
3587.00,0.0133
3586.00,0.0133
3585.00,0.0132
3584.00,0.0131
3583.00,0.0130
3582.00,0.0130
3581.00,0.0130
3580.00,0.0129
3579.00,0.0129
3578.00,0.0129
3577.00,0.0129
3576.00,0.0129
3575.00,0.0129
3574.00,0.0129
3573.00,0.0129
3572.00,0.0130
3571.00,0.0131
3570.00,0.0133
3569.00,0.0133
3568.00,0.0133
3567.00,0.0133
3566.00,0.0133
3565.00,0.0132
3564.00,0.0131
3563.00,0.0131
3562.00,0.0130
3561.00,0.0130
3560.00,0.0129
3559.00,0.0129
3558.00,0.0128
3557.00,0.0128
3556.00,0.0128
3555.00,0.0128
3554.00,0.0128
3553.00,0.0128
3552.00,0.0129
3551.00,0.0129
3550.00,0.0129
3549.00,0.0130
3548.00,0.0130
3547.00,0.0130
3546.00,0.0130
3545.00,0.0129
3544.00,0.0129
3543.00,0.0128
3542.00,0.0128
3541.00,0.0128
3540.00,0.0128
3539.00,0.0128
3538.00,0.0128
3537.00,0.0128
3536.00,0.0128
3535.00,0.0128
3534.00,0.0128
3533.00,0.0127
3532.00,0.0127
3531.00,0.0128
3530.00,0.0128
3529.00,0.0128
3528.00,0.0128
3527.00,0.0129
3526.00,0.0129
3525.00,0.0129
3524.00,0.0128
3523.00,0.0128
3522.00,0.0128
3521.00,0.0127
3520.00,0.0127
3519.00,0.0127
3518.00,0.0127
3517.00,0.0127
3516.00,0.0126
3515.00,0.0126
3514.00,0.0126
3513.00,0.0127
3512.00,0.0127
3511.00,0.0127
3510.00,0.0127
3509.00,0.0127
3508.00,0.0127
3507.00,0.0127
3506.00,0.0127
3505.00,0.0127
3504.00,0.0127
3503.00,0.0127
3502.00,0.0127
3501.00,0.0127
3500.00,0.0127
3499.00,0.0126
3498.00,0.0126
3497.00,0.0126
3496.00,0.0126
3495.00,0.0126
3494.00,0.0126
3493.00,0.0126
3492.00,0.0126
3491.00,0.0126
3490.00,0.0126
3489.00,0.0125
3488.00,0.0126
3487.00,0.0126
3486.00,0.0126
3485.00,0.0126
3484.00,0.0126
3483.00,0.0126
3482.00,0.0126
3481.00,0.0126
3480.00,0.0126
3479.00,0.0125
3478.00,0.0125
3477.00,0.0125
3476.00,0.0125
3475.00,0.0125
3474.00,0.0125
3473.00,0.0125
3472.00,0.0125
3471.00,0.0125
3470.00,0.0125
3469.00,0.0125
3468.00,0.0125
3467.00,0.0125
3466.00,0.0125
3465.00,0.0125
3464.00,0.0125
3463.00,0.0125
3462.00,0.0125
3461.00,0.0125
3460.00,0.0125
3459.00,0.0125
3458.00,0.0125
3457.00,0.0125
3456.00,0.0125
3455.00,0.0125
3454.00,0.0125
3453.00,0.0125
3452.00,0.0125
3451.00,0.0125
3450.00,0.0125
3449.00,0.0125
3448.00,0.0125
3447.00,0.0125
3446.00,0.0125
3445.00,0.0125
3444.00,0.0125
3443.00,0.0125
3442.00,0.0125
3441.00,0.0125
3440.00,0.0125
3439.00,0.0125
3438.00,0.0125
3437.00,0.0125
3436.00,0.0125
3435.00,0.0125
3434.00,0.0125
3433.00,0.0125
3432.00,0.0125
3431.00,0.0125
3430.00,0.0125
3429.00,0.0125
3428.00,0.0125
3427.00,0.0125
3426.00,0.0125
3425.00,0.0125
3424.00,0.0125
3423.00,0.0125
3422.00,0.0125
3421.00,0.0125
3420.00,0.0125
3419.00,0.0125
3418.00,0.0125
3417.00,0.0125
3416.00,0.0125
3415.00,0.0125
3414.00,0.0125
3413.00,0.0125
3412.00,0.0125
3411.00,0.0125
3410.00,0.0125
3409.00,0.0125
3408.00,0.0125
3407.00,0.0125
3406.00,0.0125
3405.00,0.0125
3404.00,0.0125
3403.00,0.0125
3402.00,0.0125
3401.00,0.0125
3400.00,0.0125
3399.00,0.0125
3398.00,0.0125
3397.00,0.0125
3396.00,0.0125
3395.00,0.0125
3394.00,0.0125
3393.00,0.0125
3392.00,0.0125
3391.00,0.0125
3390.00,0.0125
3389.00,0.0125
3388.00,0.0125
3387.00,0.0125
3386.00,0.0125
3385.00,0.0125
3384.00,0.0125
3383.00,0.0125
3382.00,0.0125
3381.00,0.0125
3380.00,0.0125
3379.00,0.0125
3378.00,0.0125
3377.00,0.0125
3376.00,0.0125
3375.00,0.0126
3374.00,0.0126
3373.00,0.0126
3372.00,0.0126
3371.00,0.0126
3370.00,0.0126
3369.00,0.0126
3368.00,0.0126
3367.00,0.0126
3366.00,0.0126
3365.00,0.0126
3364.00,0.0126
3363.00,0.0126
3362.00,0.0126
3361.00,0.0126
3360.00,0.0126
3359.00,0.0126
3358.00,0.0126
3357.00,0.0126
3356.00,0.0126
3355.00,0.0126
3354.00,0.0126
3353.00,0.0126
3352.00,0.0126
3351.00,0.0126
3350.00,0.0126
3349.00,0.0126
3348.00,0.0127
3347.00,0.0127
3346.00,0.0127
3345.00,0.0127
3344.00,0.0127
3343.00,0.0127
3342.00,0.0127
3341.00,0.0127
3340.00,0.0127
3339.00,0.0127
3338.00,0.0127
3337.00,0.0127
3336.00,0.0127
3335.00,0.0127
3334.00,0.0127
3333.00,0.0127
3332.00,0.0127
3331.00,0.0127
3330.00,0.0127
3329.00,0.0127
3328.00,0.0127
3327.00,0.0127
3326.00,0.0127
3325.00,0.0127
3324.00,0.0127
3323.00,0.0127
3322.00,0.0127
3321.00,0.0127
3320.00,0.0128
3319.00,0.0128
3318.00,0.0128
3317.00,0.0128
3316.00,0.0128
3315.00,0.0128
3314.00,0.0128
3313.00,0.0128
3312.00,0.0128
3311.00,0.0128
3310.00,0.0128
3309.00,0.0128
3308.00,0.0128
3307.00,0.0128
3306.00,0.0128
3305.00,0.0128
3304.00,0.0128
3303.00,0.0128
3302.00,0.0128
3301.00,0.0128
3300.00,0.0128
3299.00,0.0128
3298.00,0.0128
3297.00,0.0128
3296.00,0.0128
3295.00,0.0128
3294.00,0.0128
3293.00,0.0128
3292.00,0.0128
3291.00,0.0128
3290.00,0.0129
3289.00,0.0129
3288.00,0.0129
3287.00,0.0129
3286.00,0.0129
3285.00,0.0129
3284.00,0.0129
3283.00,0.0129
3282.00,0.0129
3281.00,0.0129
3280.00,0.0129
3279.00,0.0129
3278.00,0.0129
3277.00,0.0129
3276.00,0.0129
3275.00,0.0129
3274.00,0.0129
3273.00,0.0129
3272.00,0.0129
3271.00,0.0129
3270.00,0.0129
3269.00,0.0129
3268.00,0.0129
3267.00,0.0129
3266.00,0.0129
3265.00,0.0129
3264.00,0.0129
3263.00,0.0129
3262.00,0.0129
3261.00,0.0129
3260.00,0.0129
3259.00,0.0129
3258.00,0.0129
3257.00,0.0129
3256.00,0.0129
3255.00,0.0129
3254.00,0.0129
3253.00,0.0129
3252.00,0.0129
3251.00,0.0129
3250.00,0.0129
3249.00,0.0130
3248.00,0.0129
3247.00,0.0129
3246.00,0.0129
3245.00,0.0129
3244.00,0.0129
3243.00,0.0130
3242.00,0.0130
3241.00,0.0130
3240.00,0.0130
3239.00,0.0130
3238.00,0.0130
3237.00,0.0130
3236.00,0.0130
3235.00,0.0130
3234.00,0.0130
3233.00,0.0130
3232.00,0.0130
3231.00,0.0130
3230.00,0.0130
3229.00,0.0130
3228.00,0.0130
3227.00,0.0130
3226.00,0.0130
3225.00,0.0130
3224.00,0.0130
3223.00,0.0130
3222.00,0.0130
3221.00,0.0130
3220.00,0.0130
3219.00,0.0130
3218.00,0.0130
3217.00,0.0130
3216.00,0.0130
3215.00,0.0130
3214.00,0.0130
3213.00,0.0130
3212.00,0.0130
3211.00,0.0130
3210.00,0.0131
3209.00,0.0131
3208.00,0.0131
3207.00,0.0131
3206.00,0.0131
3205.00,0.0131
3204.00,0.0131
3203.00,0.0131
3202.00,0.0131
3201.00,0.0131
3200.00,0.0131
3199.00,0.0131
3198.00,0.0131
3197.00,0.0131
3196.00,0.0131
3195.00,0.0131
3194.00,0.0131
3193.00,0.0131
3192.00,0.0131
3191.00,0.0131
3190.00,0.0131
3189.00,0.0132
3188.00,0.0132
3187.00,0.0132
3186.00,0.0132
3185.00,0.0132
3184.00,0.0132
3183.00,0.0132
3182.00,0.0132
3181.00,0.0132
3180.00,0.0132
3179.00,0.0132
3178.00,0.0132
3177.00,0.0132
3176.00,0.0132
3175.00,0.0132
3174.00,0.0132
3173.00,0.0132
3172.00,0.0132
3171.00,0.0132
3170.00,0.0132
3169.00,0.0132
3168.00,0.0132
3167.00,0.0132
3166.00,0.0132
3165.00,0.0132
3164.00,0.0132
3163.00,0.0132
3162.00,0.0132
3161.00,0.0133
3160.00,0.0133
3159.00,0.0133
3158.00,0.0133
3157.00,0.0133
3156.00,0.0133
3155.00,0.0133
3154.00,0.0133
3153.00,0.0133
3152.00,0.0133
3151.00,0.0133
3150.00,0.0133
3149.00,0.0133
3148.00,0.0133
3147.00,0.0133
3146.00,0.0133
3145.00,0.0133
3144.00,0.0133
3143.00,0.0133
3142.00,0.0133
3141.00,0.0133
3140.00,0.0133
3139.00,0.0133
3138.00,0.0133
3137.00,0.0133
3136.00,0.0133
3135.00,0.0133
3134.00,0.0133
3133.00,0.0133
3132.00,0.0133
3131.00,0.0133
3130.00,0.0133
3129.00,0.0133
3128.00,0.0133
3127.00,0.0133
3126.00,0.0134
3125.00,0.0134
3124.00,0.0134
3123.00,0.0134
3122.00,0.0134
3121.00,0.0134
3120.00,0.0134
3119.00,0.0134
3118.00,0.0134
3117.00,0.0134
3116.00,0.0134
3115.00,0.0134
3114.00,0.0134
3113.00,0.0134
3112.00,0.0134
3111.00,0.0134
3110.00,0.0134
3109.00,0.0134
3108.00,0.0134
3107.00,0.0134
3106.00,0.0134
3105.00,0.0134
3104.00,0.0134
3103.00,0.0134
3102.00,0.0134
3101.00,0.0134
3100.00,0.0134
3099.00,0.0134
3098.00,0.0134
3097.00,0.0134
3096.00,0.0134
3095.00,0.0134
3094.00,0.0134
3093.00,0.0134
3092.00,0.0134
3091.00,0.0134
3090.00,0.0134
3089.00,0.0134
3088.00,0.0134
3087.00,0.0134
3086.00,0.0134
3085.00,0.0135
3084.00,0.0135
3083.00,0.0135
3082.00,0.0135
3081.00,0.0135
3080.00,0.0135
3079.00,0.0135
3078.00,0.0135
3077.00,0.0135
3076.00,0.0135
3075.00,0.0135
3074.00,0.0135
3073.00,0.0135
3072.00,0.0135
3071.00,0.0135
3070.00,0.0135
3069.00,0.0135
3068.00,0.0135
3067.00,0.0135
3066.00,0.0135
3065.00,0.0135
3064.00,0.0135
3063.00,0.0135
3062.00,0.0135
3061.00,0.0135
3060.00,0.0135
3059.00,0.0135
3058.00,0.0135
3057.00,0.0135
3056.00,0.0135
3055.00,0.0135
3054.00,0.0135
3053.00,0.0135
3052.00,0.0135
3051.00,0.0135
3050.00,0.0135
3049.00,0.0135
3048.00,0.0135
3047.00,0.0135
3046.00,0.0135
3045.00,0.0135
3044.00,0.0135
3043.00,0.0135
3042.00,0.0135
3041.00,0.0135
3040.00,0.0135
3039.00,0.0135
3038.00,0.0135
3037.00,0.0135
3036.00,0.0135
3035.00,0.0135
3034.00,0.0135
3033.00,0.0135
3032.00,0.0135
3031.00,0.0135
3030.00,0.0135
3029.00,0.0135
3028.00,0.0134
3027.00,0.0134
3026.00,0.0134
3025.00,0.0134
3024.00,0.0134
3023.00,0.0134
3022.00,0.0134
3021.00,0.0134
3020.00,0.0134
3019.00,0.0133
3018.00,0.0133
3017.00,0.0133
3016.00,0.0133
3015.00,0.0133
3014.00,0.0133
3013.00,0.0133
3012.00,0.0133
3011.00,0.0132
3010.00,0.0132
3009.00,0.0132
3008.00,0.0132
3007.00,0.0132
3006.00,0.0132
3005.00,0.0132
3004.00,0.0132
3003.00,0.0132
3002.00,0.0131
3001.00,0.0131
3000.00,0.0131
2999.00,0.0131
2998.00,0.0131
2997.00,0.0131
2996.00,0.0131
2995.00,0.0131
2994.00,0.0131
2993.00,0.0130
2992.00,0.0130
2991.00,0.0130
2990.00,0.0129
2989.00,0.0129
2988.00,0.0129
2987.00,0.0129
2986.00,0.0129
2985.00,0.0130
2984.00,0.0130
2983.00,0.0130
2982.00,0.0130
2981.00,0.0130
2980.00,0.0130
2979.00,0.0130
2978.00,0.0130
2977.00,0.0130
2976.00,0.0130
2975.00,0.0130
2974.00,0.0130
2973.00,0.0130
2972.00,0.0130
2971.00,0.0130
2970.00,0.0130
2969.00,0.0131
2968.00,0.0131
2967.00,0.0131
2966.00,0.0131
2965.00,0.0131
2964.00,0.0131
2963.00,0.0131
2962.00,0.0131
2961.00,0.0131
2960.00,0.0131
2959.00,0.0131
2958.00,0.0131
2957.00,0.0131
2956.00,0.0131
2955.00,0.0131
2954.00,0.0131
2953.00,0.0131
2952.00,0.0131
2951.00,0.0131
2950.00,0.0131
2949.00,0.0131
2948.00,0.0132
2947.00,0.0132
2946.00,0.0132
2945.00,0.0132
2944.00,0.0132
2943.00,0.0132
2942.00,0.0132
2941.00,0.0132
2940.00,0.0132
2939.00,0.0132
2938.00,0.0132
2937.00,0.0132
2936.00,0.0132
2935.00,0.0132
2934.00,0.0132
2933.00,0.0132
2932.00,0.0132
2931.00,0.0132
2930.00,0.0132
2929.00,0.0132
2928.00,0.0132
2927.00,0.0131
2926.00,0.0131
2925.00,0.0131
2924.00,0.0131
2923.00,0.0130
2922.00,0.0130
2921.00,0.0130
2920.00,0.0130
2919.00,0.0130
2918.00,0.0130
2917.00,0.0130
2916.00,0.0130
2915.00,0.0130
2914.00,0.0130
2913.00,0.0130
2912.00,0.0130
2911.00,0.0130
2910.00,0.0130
2909.00,0.0130
2908.00,0.0130
2907.00,0.0130
2906.00,0.0130
2905.00,0.0130
2904.00,0.0130
2903.00,0.0130
2902.00,0.0130
2901.00,0.0130
2900.00,0.0130
2899.00,0.0131
2898.00,0.0131
2897.00,0.0131
2896.00,0.0131
2895.00,0.0131
2894.00,0.0131
2893.00,0.0131
2892.00,0.0131
2891.00,0.0131
2890.00,0.0132
2889.00,0.0132
2888.00,0.0132
2887.00,0.0132
2886.00,0.0132
2885.00,0.0132
2884.00,0.0132
2883.00,0.0132
2882.00,0.0132
2881.00,0.0133
2880.00,0.0133
2879.00,0.0133
2878.00,0.0133
2877.00,0.0133
2876.00,0.0133
2875.00,0.0134
2874.00,0.0134
2873.00,0.0134
2872.00,0.0134
2871.00,0.0134
2870.00,0.0134
2869.00,0.0134
2868.00,0.0134
2867.00,0.0134
2866.00,0.0134
2865.00,0.0134
2864.00,0.0134
2863.00,0.0134
2862.00,0.0135
2861.00,0.0135
2860.00,0.0135
2859.00,0.0135
2858.00,0.0135
2857.00,0.0135
2856.00,0.0135
2855.00,0.0135
2854.00,0.0135
2853.00,0.0135
2852.00,0.0134
2851.00,0.0134
2850.00,0.0134
2849.00,0.0134
2848.00,0.0134
2847.00,0.0134
2846.00,0.0134
2845.00,0.0134
2844.00,0.0135
2843.00,0.0135
2842.00,0.0135
2841.00,0.0135
2840.00,0.0135
2839.00,0.0135
2838.00,0.0136
2837.00,0.0136
2836.00,0.0136
2835.00,0.0136
2834.00,0.0136
2833.00,0.0136
2832.00,0.0136
2831.00,0.0136
2830.00,0.0136
2829.00,0.0136
2828.00,0.0136
2827.00,0.0136
2826.00,0.0136
2825.00,0.0137
2824.00,0.0137
2823.00,0.0137
2822.00,0.0137
2821.00,0.0137
2820.00,0.0137
2819.00,0.0137
2818.00,0.0137
2817.00,0.0137
2816.00,0.0137
2815.00,0.0137
2814.00,0.0137
2813.00,0.0137
2812.00,0.0137
2811.00,0.0137
2810.00,0.0137
2809.00,0.0137
2808.00,0.0137
2807.00,0.0137
2806.00,0.0137
2805.00,0.0137
2804.00,0.0137
2803.00,0.0137
2802.00,0.0137
2801.00,0.0137
2800.00,0.0137
2799.00,0.0137
2798.00,0.0137
2797.00,0.0137
2796.00,0.0137
2795.00,0.0137
2794.00,0.0137
2793.00,0.0137
2792.00,0.0137
2791.00,0.0137
2790.00,0.0137
2789.00,0.0137
2788.00,0.0137
2787.00,0.0137
2786.00,0.0137
2785.00,0.0137
2784.00,0.0137
2783.00,0.0137
2782.00,0.0137
2781.00,0.0137
2780.00,0.0137
2779.00,0.0137
2778.00,0.0137
2777.00,0.0137
2776.00,0.0137
2775.00,0.0137
2774.00,0.0137
2773.00,0.0137
2772.00,0.0137
2771.00,0.0137
2770.00,0.0137
2769.00,0.0137
2768.00,0.0137
2767.00,0.0137
2766.00,0.0137
2765.00,0.0137
2764.00,0.0138
2763.00,0.0138
2762.00,0.0138
2761.00,0.0138
2760.00,0.0138
2759.00,0.0138
2758.00,0.0138
2757.00,0.0138
2756.00,0.0138
2755.00,0.0138
2754.00,0.0138
2753.00,0.0138
2752.00,0.0138
2751.00,0.0138
2750.00,0.0138
2749.00,0.0138
2748.00,0.0138
2747.00,0.0138
2746.00,0.0138
2745.00,0.0138
2744.00,0.0138
2743.00,0.0138
2742.00,0.0138
2741.00,0.0138
2740.00,0.0138
2739.00,0.0138
2738.00,0.0138
2737.00,0.0138
2736.00,0.0138
2735.00,0.0138
2734.00,0.0138
2733.00,0.0138
2732.00,0.0138
2731.00,0.0138
2730.00,0.0138
2729.00,0.0138
2728.00,0.0138
2727.00,0.0138
2726.00,0.0138
2725.00,0.0138
2724.00,0.0138
2723.00,0.0138
2722.00,0.0138
2721.00,0.0138
2720.00,0.0138
2719.00,0.0138
2718.00,0.0138
2717.00,0.0138
2716.00,0.0138
2715.00,0.0138
2714.00,0.0138
2713.00,0.0138
2712.00,0.0138
2711.00,0.0138
2710.00,0.0138
2709.00,0.0138
2708.00,0.0138
2707.00,0.0138
2706.00,0.0138
2705.00,0.0138
2704.00,0.0138
2703.00,0.0138
2702.00,0.0138
2701.00,0.0138
2700.00,0.0138
2699.00,0.0138
2698.00,0.0138
2697.00,0.0138
2696.00,0.0138
2695.00,0.0138
2694.00,0.0138
2693.00,0.0138
2692.00,0.0138
2691.00,0.0138
2690.00,0.0138
2689.00,0.0138
2688.00,0.0138
2687.00,0.0138
2686.00,0.0138
2685.00,0.0138
2684.00,0.0138
2683.00,0.0138
2682.00,0.0138
2681.00,0.0138
2680.00,0.0139
2679.00,0.0139
2678.00,0.0139
2677.00,0.0139
2676.00,0.0139
2675.00,0.0139
2674.00,0.0139
2673.00,0.0139
2672.00,0.0139
2671.00,0.0139
2670.00,0.0139
2669.00,0.0139
2668.00,0.0139
2667.00,0.0139
2666.00,0.0139
2665.00,0.0139
2664.00,0.0139
2663.00,0.0139
2662.00,0.0139
2661.00,0.0139
2660.00,0.0139
2659.00,0.0139
2658.00,0.0139
2657.00,0.0139
2656.00,0.0139
2655.00,0.0139
2654.00,0.0139
2653.00,0.0139
2652.00,0.0139
2651.00,0.0139
2650.00,0.0139
2649.00,0.0139
2648.00,0.0139
2647.00,0.0139
2646.00,0.0139
2645.00,0.0139
2644.00,0.0139
2643.00,0.0139
2642.00,0.0139
2641.00,0.0139
2640.00,0.0139
2639.00,0.0139
2638.00,0.0139
2637.00,0.0139
2636.00,0.0139
2635.00,0.0139
2634.00,0.0139
2633.00,0.0139
2632.00,0.0139
2631.00,0.0139
2630.00,0.0139
2629.00,0.0139
2628.00,0.0139
2627.00,0.0139
2626.00,0.0139
2625.00,0.0139
2624.00,0.0139
2623.00,0.0139
2622.00,0.0139
2621.00,0.0139
2620.00,0.0139
2619.00,0.0139
2618.00,0.0139
2617.00,0.0139
2616.00,0.0139
2615.00,0.0139
2614.00,0.0139
2613.00,0.0139
2612.00,0.0139
2611.00,0.0139
2610.00,0.0139
2609.00,0.0139
2608.00,0.0139
2607.00,0.0139
2606.00,0.0139
2605.00,0.0139
2604.00,0.0139
2603.00,0.0139
2602.00,0.0139
2601.00,0.0139
2600.00,0.0139
2599.00,0.0139
2598.00,0.0139
2597.00,0.0139
2596.00,0.0139
2595.00,0.0139
2594.00,0.0139
2593.00,0.0139
2592.00,0.0139
2591.00,0.0139
2590.00,0.0139
2589.00,0.0139
2588.00,0.0139
2587.00,0.0139
2586.00,0.0139
2585.00,0.0139
2584.00,0.0139
2583.00,0.0139
2582.00,0.0139
2581.00,0.0139
2580.00,0.0139
2579.00,0.0139
2578.00,0.0139
2577.00,0.0139
2576.00,0.0139
2575.00,0.0139
2574.00,0.0139
2573.00,0.0139
2572.00,0.0139
2571.00,0.0139
2570.00,0.0139
2569.00,0.0139
2568.00,0.0140
2567.00,0.0140
2566.00,0.0140
2565.00,0.0139
2564.00,0.0139
2563.00,0.0139
2562.00,0.0140
2561.00,0.0140
2560.00,0.0140
2559.00,0.0140
2558.00,0.0140
2557.00,0.0140
2556.00,0.0140
2555.00,0.0140
2554.00,0.0140
2553.00,0.0140
2552.00,0.0140
2551.00,0.0140
2550.00,0.0140
2549.00,0.0140
2548.00,0.0140
2547.00,0.0140
2546.00,0.0140
2545.00,0.0140
2544.00,0.0140
2543.00,0.0140
2542.00,0.0140
2541.00,0.0140
2540.00,0.0140
2539.00,0.0140
2538.00,0.0140
2537.00,0.0140
2536.00,0.0140
2535.00,0.0140
2534.00,0.0140
2533.00,0.0140
2532.00,0.0140
2531.00,0.0140
2530.00,0.0140
2529.00,0.0140
2528.00,0.0140
2527.00,0.0140
2526.00,0.0140
2525.00,0.0140
2524.00,0.0140
2523.00,0.0140
2522.00,0.0140
2521.00,0.0140
2520.00,0.0140
2519.00,0.0140
2518.00,0.0140
2517.00,0.0140
2516.00,0.0140
2515.00,0.0140
2514.00,0.0140
2513.00,0.0140
2512.00,0.0140
2511.00,0.0140
2510.00,0.0140
2509.00,0.0140
2508.00,0.0140
2507.00,0.0140
2506.00,0.0140
2505.00,0.0140
2504.00,0.0140
2503.00,0.0140
2502.00,0.0140
2501.00,0.0140
2500.00,0.0140
2499.00,0.0140
2498.00,0.0140
2497.00,0.0140
2496.00,0.0140
2495.00,0.0140
2494.00,0.0140
2493.00,0.0140
2492.00,0.0140
2491.00,0.0140
2490.00,0.0140
2489.00,0.0140
2488.00,0.0140
2487.00,0.0140
2486.00,0.0140
2485.00,0.0140
2484.00,0.0140
2483.00,0.0140
2482.00,0.0140
2481.00,0.0140
2480.00,0.0140
2479.00,0.0140
2478.00,0.0140
2477.00,0.0140
2476.00,0.0140
2475.00,0.0140
2474.00,0.0140
2473.00,0.0140
2472.00,0.0140
2471.00,0.0140
2470.00,0.0140
2469.00,0.0140
2468.00,0.0140
2467.00,0.0140
2466.00,0.0140
2465.00,0.0140
2464.00,0.0140
2463.00,0.0140
2462.00,0.0140
2461.00,0.0140
2460.00,0.0140
2459.00,0.0140
2458.00,0.0140
2457.00,0.0140
2456.00,0.0140
2455.00,0.0140
2454.00,0.0140
2453.00,0.0140
2452.00,0.0140
2451.00,0.0140
2450.00,0.0140
2449.00,0.0140
2448.00,0.0140
2447.00,0.0140
2446.00,0.0140
2445.00,0.0140
2444.00,0.0140
2443.00,0.0140
2442.00,0.0140
2441.00,0.0140
2440.00,0.0140
2439.00,0.0140
2438.00,0.0140
2437.00,0.0140
2436.00,0.0140
2435.00,0.0140
2434.00,0.0140
2433.00,0.0140
2432.00,0.0140
2431.00,0.0140
2430.00,0.0140
2429.00,0.0140
2428.00,0.0140
2427.00,0.0140
2426.00,0.0140
2425.00,0.0140
2424.00,0.0140
2423.00,0.0140
2422.00,0.0140
2421.00,0.0140
2420.00,0.0140
2419.00,0.0140
2418.00,0.0140
2417.00,0.0140
2416.00,0.0140
2415.00,0.0140
2414.00,0.0140
2413.00,0.0140
2412.00,0.0140
2411.00,0.0140
2410.00,0.0140
2409.00,0.0140
2408.00,0.0140
2407.00,0.0140
2406.00,0.0140
2405.00,0.0140
2404.00,0.0141
2403.00,0.0141
2402.00,0.0141
2401.00,0.0141
2400.00,0.0141
2399.00,0.0140
2398.00,0.0140
2397.00,0.0140
2396.00,0.0140
2395.00,0.0141
2394.00,0.0141
2393.00,0.0141
2392.00,0.0140
2391.00,0.0140
2390.00,0.0141
2389.00,0.0140
2388.00,0.0140
2387.00,0.0140
2386.00,0.0140
2385.00,0.0140
2384.00,0.0140
2383.00,0.0140
2382.00,0.0140
2381.00,0.0140
2380.00,0.0140
2379.00,0.0140
2378.00,0.0140
2377.00,0.0140
2376.00,0.0140
2375.00,0.0140
2374.00,0.0140
2373.00,0.0140
2372.00,0.0140
2371.00,0.0140
2370.00,0.0140
2369.00,0.0140
2368.00,0.0140
2367.00,0.0140
2366.00,0.0140
2365.00,0.0140
2364.00,0.0140
2363.00,0.0140
2362.00,0.0140
2361.00,0.0140
2360.00,0.0140
2359.00,0.0140
2358.00,0.0140
2357.00,0.0139
2356.00,0.0139
2355.00,0.0139
2354.00,0.0139
2353.00,0.0140
2352.00,0.0140
2351.00,0.0140
2350.00,0.0140
2349.00,0.0139
2348.00,0.0139
2347.00,0.0140
2346.00,0.0141
2345.00,0.0142
2344.00,0.0142
2343.00,0.0142
2342.00,0.0142
2341.00,0.0142
2340.00,0.0142
2339.00,0.0142
2338.00,0.0142
2337.00,0.0142
2336.00,0.0141
2335.00,0.0141
2334.00,0.0141
2333.00,0.0141
2332.00,0.0142
2331.00,0.0142
2330.00,0.0143
2329.00,0.0143
2328.00,0.0142
2327.00,0.0142
2326.00,0.0142
2325.00,0.0142
2324.00,0.0142
2323.00,0.0143
2322.00,0.0143
2321.00,0.0144
2320.00,0.0144
2319.00,0.0144
2318.00,0.0144
2317.00,0.0143
2316.00,0.0143
2315.00,0.0143
2314.00,0.0144
2313.00,0.0144
2312.00,0.0145
2311.00,0.0145
2310.00,0.0145
2309.00,0.0145
2308.00,0.0145
2307.00,0.0145
2306.00,0.0145
2305.00,0.0145
2304.00,0.0144
2303.00,0.0144
2302.00,0.0144
2301.00,0.0144
2300.00,0.0144
2299.00,0.0143
2298.00,0.0143
2297.00,0.0143
2296.00,0.0143
2295.00,0.0142
2294.00,0.0142
2293.00,0.0142
2292.00,0.0142
2291.00,0.0142
2290.00,0.0142
2289.00,0.0142
2288.00,0.0141
2287.00,0.0141
2286.00,0.0141
2285.00,0.0141
2284.00,0.0141
2283.00,0.0141
2282.00,0.0141
2281.00,0.0140
2280.00,0.0140
2279.00,0.0140
2278.00,0.0140
2277.00,0.0140
2276.00,0.0140
2275.00,0.0140
2274.00,0.0140
2273.00,0.0140
2272.00,0.0140
2271.00,0.0141
2270.00,0.0141
2269.00,0.0141
2268.00,0.0141
2267.00,0.0141
2266.00,0.0141
2265.00,0.0141
2264.00,0.0141
2263.00,0.0141
2262.00,0.0141
2261.00,0.0141
2260.00,0.0141
2259.00,0.0141
2258.00,0.0141
2257.00,0.0141
2256.00,0.0141
2255.00,0.0141
2254.00,0.0141
2253.00,0.0141
2252.00,0.0141
2251.00,0.0141
2250.00,0.0141
2249.00,0.0141
2248.00,0.0141
2247.00,0.0141
2246.00,0.0141
2245.00,0.0141
2244.00,0.0141
2243.00,0.0141
2242.00,0.0141
2241.00,0.0141
2240.00,0.0141
2239.00,0.0141
2238.00,0.0141
2237.00,0.0141
2236.00,0.0141
2235.00,0.0141
2234.00,0.0141
2233.00,0.0141
2232.00,0.0141
2231.00,0.0141
2230.00,0.0141
2229.00,0.0141
2228.00,0.0141
2227.00,0.0141
2226.00,0.0141
2225.00,0.0141
2224.00,0.0141
2223.00,0.0141
2222.00,0.0141
2221.00,0.0141
2220.00,0.0140
2219.00,0.0140
2218.00,0.0140
2217.00,0.0140
2216.00,0.0140
2215.00,0.0140
2214.00,0.0141
2213.00,0.0141
2212.00,0.0141
2211.00,0.0141
2210.00,0.0141
2209.00,0.0141
2208.00,0.0141
2207.00,0.0141
2206.00,0.0141
2205.00,0.0141
2204.00,0.0141
2203.00,0.0141
2202.00,0.0141
2201.00,0.0141
2200.00,0.0141
2199.00,0.0141
2198.00,0.0141
2197.00,0.0141
2196.00,0.0141
2195.00,0.0141
2194.00,0.0141
2193.00,0.0141
2192.00,0.0141
2191.00,0.0141
2190.00,0.0141
2189.00,0.0141
2188.00,0.0141
2187.00,0.0141
2186.00,0.0141
2185.00,0.0141
2184.00,0.0141
2183.00,0.0141
2182.00,0.0141
2181.00,0.0141
2180.00,0.0141
2179.00,0.0141
2178.00,0.0141
2177.00,0.0141
2176.00,0.0141
2175.00,0.0141
2174.00,0.0141
2173.00,0.0142
2172.00,0.0142
2171.00,0.0142
2170.00,0.0142
2169.00,0.0141
2168.00,0.0141
2167.00,0.0141
2166.00,0.0141
2165.00,0.0141
2164.00,0.0141
2163.00,0.0141
2162.00,0.0141
2161.00,0.0141
2160.00,0.0141
2159.00,0.0141
2158.00,0.0141
2157.00,0.0141
2156.00,0.0141
2155.00,0.0142
2154.00,0.0142
2153.00,0.0142
2152.00,0.0142
2151.00,0.0142
2150.00,0.0142
2149.00,0.0142
2148.00,0.0142
2147.00,0.0142
2146.00,0.0142
2145.00,0.0142
2144.00,0.0142
2143.00,0.0142
2142.00,0.0142
2141.00,0.0142
2140.00,0.0142
2139.00,0.0142
2138.00,0.0142
2137.00,0.0142
2136.00,0.0142
2135.00,0.0142
2134.00,0.0142
2133.00,0.0142
2132.00,0.0142
2131.00,0.0142
2130.00,0.0142
2129.00,0.0142
2128.00,0.0142
2127.00,0.0142
2126.00,0.0142
2125.00,0.0142
2124.00,0.0142
2123.00,0.0142
2122.00,0.0142
2121.00,0.0141
2120.00,0.0141
2119.00,0.0141
2118.00,0.0141
2117.00,0.0141
2116.00,0.0141
2115.00,0.0141
2114.00,0.0141
2113.00,0.0141
2112.00,0.0141
2111.00,0.0141
2110.00,0.0141
2109.00,0.0141
2108.00,0.0141
2107.00,0.0141
2106.00,0.0141
2105.00,0.0141
2104.00,0.0141
2103.00,0.0141
2102.00,0.0141
2101.00,0.0141
2100.00,0.0141
2099.00,0.0141
2098.00,0.0141
2097.00,0.0141
2096.00,0.0141
2095.00,0.0141
2094.00,0.0141
2093.00,0.0141
2092.00,0.0141
2091.00,0.0141
2090.00,0.0141
2089.00,0.0141
2088.00,0.0141
2087.00,0.0141
2086.00,0.0141
2085.00,0.0141
2084.00,0.0141
2083.00,0.0141
2082.00,0.0141
2081.00,0.0141
2080.00,0.0141
2079.00,0.0141
2078.00,0.0141
2077.00,0.0141
2076.00,0.0141
2075.00,0.0141
2074.00,0.0141
2073.00,0.0141
2072.00,0.0141
2071.00,0.0141
2070.00,0.0141
2069.00,0.0141
2068.00,0.0141
2067.00,0.0141
2066.00,0.0141
2065.00,0.0141
2064.00,0.0141
2063.00,0.0142
2062.00,0.0142
2061.00,0.0142
2060.00,0.0142
2059.00,0.0142
2058.00,0.0142
2057.00,0.0142
2056.00,0.0142
2055.00,0.0142
2054.00,0.0142
2053.00,0.0142
2052.00,0.0142
2051.00,0.0142
2050.00,0.0142
2049.00,0.0142
2048.00,0.0142
2047.00,0.0142
2046.00,0.0142
2045.00,0.0142
2044.00,0.0142
2043.00,0.0142
2042.00,0.0142
2041.00,0.0142
2040.00,0.0142
2039.00,0.0142
2038.00,0.0142
2037.00,0.0142
2036.00,0.0142
2035.00,0.0143
2034.00,0.0143
2033.00,0.0143
2032.00,0.0143
2031.00,0.0143
2030.00,0.0143
2029.00,0.0143
2028.00,0.0143
2027.00,0.0143
2026.00,0.0143
2025.00,0.0143
2024.00,0.0143
2023.00,0.0143
2022.00,0.0143
2021.00,0.0143
2020.00,0.0143
2019.00,0.0143
2018.00,0.0143
2017.00,0.0143
2016.00,0.0143
2015.00,0.0143
2014.00,0.0143
2013.00,0.0143
2012.00,0.0143
2011.00,0.0143
2010.00,0.0143
2009.00,0.0143
2008.00,0.0143
2007.00,0.0143
2006.00,0.0143
2005.00,0.0144
2004.00,0.0144
2003.00,0.0144
2002.00,0.0144
2001.00,0.0144
2000.00,0.0143
1999.00,0.0144
1998.00,0.0144
1997.00,0.0144
1996.00,0.0144
1995.00,0.0144
1994.00,0.0144
1993.00,0.0144
1992.00,0.0144
1991.00,0.0144
1990.00,0.0144
1989.00,0.0144
1988.00,0.0144
1987.00,0.0144
1986.00,0.0144
1985.00,0.0144
1984.00,0.0144
1983.00,0.0144
1982.00,0.0144
1981.00,0.0144
1980.00,0.0144
1979.00,0.0144
1978.00,0.0144
1977.00,0.0144
1976.00,0.0144
1975.00,0.0144
1974.00,0.0144
1973.00,0.0144
1972.00,0.0144
1971.00,0.0144
1970.00,0.0144
1969.00,0.0144
1968.00,0.0144
1967.00,0.0144
1966.00,0.0144
1965.00,0.0144
1964.00,0.0144
1963.00,0.0145
1962.00,0.0145
1961.00,0.0145
1960.00,0.0145
1959.00,0.0145
1958.00,0.0144
1957.00,0.0144
1956.00,0.0144
1955.00,0.0144
1954.00,0.0144
1953.00,0.0144
1952.00,0.0144
1951.00,0.0144
1950.00,0.0144
1949.00,0.0144
1948.00,0.0144
1947.00,0.0144
1946.00,0.0145
1945.00,0.0145
1944.00,0.0145
1943.00,0.0145
1942.00,0.0145
1941.00,0.0145
1940.00,0.0145
1939.00,0.0145
1938.00,0.0145
1937.00,0.0145
1936.00,0.0145
1935.00,0.0145
1934.00,0.0145
1933.00,0.0145
1932.00,0.0145
1931.00,0.0145
1930.00,0.0145
1929.00,0.0145
1928.00,0.0145
1927.00,0.0145
1926.00,0.0145
1925.00,0.0145
1924.00,0.0145
1923.00,0.0145
1922.00,0.0145
1921.00,0.0145
1920.00,0.0145
1919.00,0.0145
1918.00,0.0145
1917.00,0.0145
1916.00,0.0145
1915.00,0.0145
1914.00,0.0145
1913.00,0.0145
1912.00,0.0145
1911.00,0.0146
1910.00,0.0146
1909.00,0.0146
1908.00,0.0146
1907.00,0.0146
1906.00,0.0146
1905.00,0.0145
1904.00,0.0145
1903.00,0.0146
1902.00,0.0146
1901.00,0.0146
1900.00,0.0145
1899.00,0.0146
1898.00,0.0146
1897.00,0.0146
1896.00,0.0146
1895.00,0.0146
1894.00,0.0146
1893.00,0.0146
1892.00,0.0146
1891.00,0.0146
1890.00,0.0146
1889.00,0.0146
1888.00,0.0146
1887.00,0.0146
1886.00,0.0146
1885.00,0.0146
1884.00,0.0146
1883.00,0.0146
1882.00,0.0146
1881.00,0.0146
1880.00,0.0146
1879.00,0.0146
1878.00,0.0146
1877.00,0.0146
1876.00,0.0146
1875.00,0.0146
1874.00,0.0146
1873.00,0.0146
1872.00,0.0146
1871.00,0.0146
1870.00,0.0146
1869.00,0.0146
1868.00,0.0146
1867.00,0.0146
1866.00,0.0146
1865.00,0.0146
1864.00,0.0146
1863.00,0.0146
1862.00,0.0146
1861.00,0.0146
1860.00,0.0146
1859.00,0.0146
1858.00,0.0146
1857.00,0.0146
1856.00,0.0146
1855.00,0.0146
1854.00,0.0146
1853.00,0.0146
1852.00,0.0146
1851.00,0.0146
1850.00,0.0146
1849.00,0.0146
1848.00,0.0146
1847.00,0.0147
1846.00,0.0146
1845.00,0.0146
1844.00,0.0146
1843.00,0.0147
1842.00,0.0146
1841.00,0.0146
1840.00,0.0146
1839.00,0.0147
1838.00,0.0147
1837.00,0.0147
1836.00,0.0147
1835.00,0.0147
1834.00,0.0147
1833.00,0.0147
1832.00,0.0146
1831.00,0.0146
1830.00,0.0147
1829.00,0.0147
1828.00,0.0147
1827.00,0.0147
1826.00,0.0147
1825.00,0.0147
1824.00,0.0147
1823.00,0.0147
1822.00,0.0147
1821.00,0.0147
1820.00,0.0147
1819.00,0.0147
1818.00,0.0147
1817.00,0.0147
1816.00,0.0147
1815.00,0.0147
1814.00,0.0147
1813.00,0.0147
1812.00,0.0147
1811.00,0.0147
1810.00,0.0147
1809.00,0.0147
1808.00,0.0147
1807.00,0.0147
1806.00,0.0147
1805.00,0.0147
1804.00,0.0147
1803.00,0.0147
1802.00,0.0147
1801.00,0.0147
1800.00,0.0146
1799.00,0.0147
1798.00,0.0147
1797.00,0.0147
1796.00,0.0147
1795.00,0.0147
1794.00,0.0147
1793.00,0.0147
1792.00,0.0147
1791.00,0.0147
1790.00,0.0147
1789.00,0.0147
1788.00,0.0147
1787.00,0.0147
1786.00,0.0147
1785.00,0.0147
1784.00,0.0146
1783.00,0.0146
1782.00,0.0146
1781.00,0.0147
1780.00,0.0147
1779.00,0.0147
1778.00,0.0147
1777.00,0.0147
1776.00,0.0147
1775.00,0.0147
1774.00,0.0147
1773.00,0.0147
1772.00,0.0147
1771.00,0.0147
1770.00,0.0148
1769.00,0.0147
1768.00,0.0147
1767.00,0.0147
1766.00,0.0147
1765.00,0.0147
1764.00,0.0147
1763.00,0.0147
1762.00,0.0147
1761.00,0.0147
1760.00,0.0147
1759.00,0.0147
1758.00,0.0147
1757.00,0.0147
1756.00,0.0147
1755.00,0.0147
1754.00,0.0147
1753.00,0.0148
1752.00,0.0147
1751.00,0.0146
1750.00,0.0146
1749.00,0.0146
1748.00,0.0146
1747.00,0.0147
1746.00,0.0147
1745.00,0.0147
1744.00,0.0147
1743.00,0.0146
1742.00,0.0146
1741.00,0.0146
1740.00,0.0146
1739.00,0.0146
1738.00,0.0146
1737.00,0.0147
1736.00,0.0147
1735.00,0.0147
1734.00,0.0146
1733.00,0.0146
1732.00,0.0145
1731.00,0.0146
1730.00,0.0146
1729.00,0.0146
1728.00,0.0146
1727.00,0.0146
1726.00,0.0146
1725.00,0.0146
1724.00,0.0146
1723.00,0.0146
1722.00,0.0146
1721.00,0.0146
1720.00,0.0146
1719.00,0.0146
1718.00,0.0146
1717.00,0.0146
1716.00,0.0145
1715.00,0.0146
1714.00,0.0146
1713.00,0.0146
1712.00,0.0145
1711.00,0.0146
1710.00,0.0146
1709.00,0.0146
1708.00,0.0145
1707.00,0.0145
1706.00,0.0146
1705.00,0.0146
1704.00,0.0146
1703.00,0.0146
1702.00,0.0146
1701.00,0.0145
1700.00,0.0144
1699.00,0.0145
1698.00,0.0145
1697.00,0.0145
1696.00,0.0145
1695.00,0.0145
1694.00,0.0145
1693.00,0.0145
1692.00,0.0145
1691.00,0.0145
1690.00,0.0145
1689.00,0.0145
1688.00,0.0145
1687.00,0.0145
1686.00,0.0145
1685.00,0.0145
1684.00,0.0145
1683.00,0.0145
1682.00,0.0145
1681.00,0.0145
1680.00,0.0145
1679.00,0.0145
1678.00,0.0145
1677.00,0.0145
1676.00,0.0145
1675.00,0.0144
1674.00,0.0144
1673.00,0.0144
1672.00,0.0144
1671.00,0.0144
1670.00,0.0144
1669.00,0.0144
1668.00,0.0145
1667.00,0.0144
1666.00,0.0144
1665.00,0.0144
1664.00,0.0144
1663.00,0.0144
1662.00,0.0144
1661.00,0.0144
1660.00,0.0144
1659.00,0.0144
1658.00,0.0144
1657.00,0.0144
1656.00,0.0145
1655.00,0.0145
1654.00,0.0143
1653.00,0.0143
1652.00,0.0144
1651.00,0.0144
1650.00,0.0143
1649.00,0.0143
1648.00,0.0144
1647.00,0.0144
1646.00,0.0144
1645.00,0.0143
1644.00,0.0143
1643.00,0.0143
1642.00,0.0143
1641.00,0.0143
1640.00,0.0143
1639.00,0.0143
1638.00,0.0143
1637.00,0.0143
1636.00,0.0143
1635.00,0.0143
1634.00,0.0144
1633.00,0.0144
1632.00,0.0144
1631.00,0.0144
1630.00,0.0143
1629.00,0.0143
1628.00,0.0143
1627.00,0.0144
1626.00,0.0144
1625.00,0.0144
1624.00,0.0144
1623.00,0.0144
1622.00,0.0144
1621.00,0.0144
1620.00,0.0144
1619.00,0.0144
1618.00,0.0144
1617.00,0.0144
1616.00,0.0144
1615.00,0.0145
1614.00,0.0145
1613.00,0.0145
1612.00,0.0145
1611.00,0.0145
1610.00,0.0144
1609.00,0.0145
1608.00,0.0145
1607.00,0.0145
1606.00,0.0145
1605.00,0.0145
1604.00,0.0145
1603.00,0.0145
1602.00,0.0145
1601.00,0.0145
1600.00,0.0145
1599.00,0.0145
1598.00,0.0145
1597.00,0.0146
1596.00,0.0146
1595.00,0.0146
1594.00,0.0146
1593.00,0.0146
1592.00,0.0146
1591.00,0.0146
1590.00,0.0146
1589.00,0.0146
1588.00,0.0146
1587.00,0.0146
1586.00,0.0146
1585.00,0.0146
1584.00,0.0146
1583.00,0.0146
1582.00,0.0146
1581.00,0.0146
1580.00,0.0146
1579.00,0.0146
1578.00,0.0146
1577.00,0.0146
1576.00,0.0146
1575.00,0.0147
1574.00,0.0146
1573.00,0.0146
1572.00,0.0146
1571.00,0.0146
1570.00,0.0146
1569.00,0.0146
1568.00,0.0147
1567.00,0.0146
1566.00,0.0146
1565.00,0.0147
1564.00,0.0147
1563.00,0.0147
1562.00,0.0147
1561.00,0.0148
1560.00,0.0147
1559.00,0.0145
1558.00,0.0146
1557.00,0.0147
1556.00,0.0147
1555.00,0.0147
1554.00,0.0147
1553.00,0.0146
1552.00,0.0146
1551.00,0.0146
1550.00,0.0146
1549.00,0.0146
1548.00,0.0146
1547.00,0.0146
1546.00,0.0146
1545.00,0.0146
1544.00,0.0146
1543.00,0.0146
1542.00,0.0146
1541.00,0.0146
1540.00,0.0146
1539.00,0.0147
1538.00,0.0147
1537.00,0.0147
1536.00,0.0146
1535.00,0.0147
1534.00,0.0147
1533.00,0.0147
1532.00,0.0147
1531.00,0.0147
1530.00,0.0147
1529.00,0.0147
1528.00,0.0147
1527.00,0.0147
1526.00,0.0147
1525.00,0.0147
1524.00,0.0147
1523.00,0.0147
1522.00,0.0147
1521.00,0.0147
1520.00,0.0147
1519.00,0.0146
1518.00,0.0147
1517.00,0.0147
1516.00,0.0147
1515.00,0.0147
1514.00,0.0147
1513.00,0.0147
1512.00,0.0147
1511.00,0.0147
1510.00,0.0147
1509.00,0.0147
1508.00,0.0147
1507.00,0.0146
1506.00,0.0146
1505.00,0.0147
1504.00,0.0146
1503.00,0.0146
1502.00,0.0146
1501.00,0.0146
1500.00,0.0146
1499.00,0.0146
1498.00,0.0146
1497.00,0.0146
1496.00,0.0145
1495.00,0.0145
1494.00,0.0144
1493.00,0.0144
1492.00,0.0144
1491.00,0.0145
1490.00,0.0145
1489.00,0.0145
1488.00,0.0145
1487.00,0.0145
1486.00,0.0145
1485.00,0.0145
1484.00,0.0145
1483.00,0.0146
1482.00,0.0146
1481.00,0.0146
1480.00,0.0146
1479.00,0.0146
1478.00,0.0146
1477.00,0.0146
1476.00,0.0146
1475.00,0.0146
1474.00,0.0146
1473.00,0.0146
1472.00,0.0146
1471.00,0.0146
1470.00,0.0146
1469.00,0.0146
1468.00,0.0146
1467.00,0.0146
1466.00,0.0146
1465.00,0.0146
1464.00,0.0146
1463.00,0.0146
1462.00,0.0146
1461.00,0.0146
1460.00,0.0146
1459.00,0.0146
1458.00,0.0146
1457.00,0.0146
1456.00,0.0145
1455.00,0.0145
1454.00,0.0144
1453.00,0.0144
1452.00,0.0144
1451.00,0.0144
1450.00,0.0144
1449.00,0.0144
1448.00,0.0144
1447.00,0.0144
1446.00,0.0144
1445.00,0.0145
1444.00,0.0145
1443.00,0.0145
1442.00,0.0145
1441.00,0.0145
1440.00,0.0145
1439.00,0.0145
1438.00,0.0145
1437.00,0.0145
1436.00,0.0145
1435.00,0.0145
1434.00,0.0145
1433.00,0.0145
1432.00,0.0146
1431.00,0.0145
1430.00,0.0145
1429.00,0.0146
1428.00,0.0145
1427.00,0.0145
1426.00,0.0145
1425.00,0.0146
1424.00,0.0145
1423.00,0.0145
1422.00,0.0145
1421.00,0.0146
1420.00,0.0145
1419.00,0.0145
1418.00,0.0145
1417.00,0.0145
1416.00,0.0145
1415.00,0.0144
1414.00,0.0144
1413.00,0.0144
1412.00,0.0144
1411.00,0.0144
1410.00,0.0144
1409.00,0.0144
1408.00,0.0143
1407.00,0.0143
1406.00,0.0143
1405.00,0.0143
1404.00,0.0143
1403.00,0.0143
1402.00,0.0143
1401.00,0.0143
1400.00,0.0143
1399.00,0.0143
1398.00,0.0143
1397.00,0.0143
1396.00,0.0143
1395.00,0.0142
1394.00,0.0142
1393.00,0.0142
1392.00,0.0143
1391.00,0.0143
1390.00,0.0144
1389.00,0.0144
1388.00,0.0144
1387.00,0.0143
1386.00,0.0143
1385.00,0.0143
1384.00,0.0143
1383.00,0.0143
1382.00,0.0143
1381.00,0.0143
1380.00,0.0143
1379.00,0.0143
1378.00,0.0144
1377.00,0.0144
1376.00,0.0144
1375.00,0.0144
1374.00,0.0144
1373.00,0.0144
1372.00,0.0144
1371.00,0.0144
1370.00,0.0144
1369.00,0.0144
1368.00,0.0144
1367.00,0.0144
1366.00,0.0144
1365.00,0.0145
1364.00,0.0145
1363.00,0.0145
1362.00,0.0145
1361.00,0.0145
1360.00,0.0145
1359.00,0.0145
1358.00,0.0145
1357.00,0.0145
1356.00,0.0144
1355.00,0.0144
1354.00,0.0144
1353.00,0.0144
1352.00,0.0144
1351.00,0.0144
1350.00,0.0144
1349.00,0.0144
1348.00,0.0144
1347.00,0.0144
1346.00,0.0144
1345.00,0.0144
1344.00,0.0144
1343.00,0.0144
1342.00,0.0145
1341.00,0.0145
1340.00,0.0145
1339.00,0.0144
1338.00,0.0144
1337.00,0.0144
1336.00,0.0144
1335.00,0.0144
1334.00,0.0144
1333.00,0.0144
1332.00,0.0144
1331.00,0.0144
1330.00,0.0144
1329.00,0.0144
1328.00,0.0144
1327.00,0.0144
1326.00,0.0144
1325.00,0.0144
1324.00,0.0144
1323.00,0.0144
1322.00,0.0144
1321.00,0.0144
1320.00,0.0144
1319.00,0.0144
1318.00,0.0144
1317.00,0.0144
1316.00,0.0144
1315.00,0.0144
1314.00,0.0144
1313.00,0.0144
1312.00,0.0144
1311.00,0.0144
1310.00,0.0144
1309.00,0.0144
1308.00,0.0144
1307.00,0.0144
1306.00,0.0144
1305.00,0.0144
1304.00,0.0144
1303.00,0.0144
1302.00,0.0143
1301.00,0.0143
1300.00,0.0143
1299.00,0.0143
1298.00,0.0143
1297.00,0.0143
1296.00,0.0143
1295.00,0.0143
1294.00,0.0143
1293.00,0.0143
1292.00,0.0143
1291.00,0.0143
1290.00,0.0143
1289.00,0.0143
1288.00,0.0143
1287.00,0.0143
1286.00,0.0143
1285.00,0.0143
1284.00,0.0143
1283.00,0.0143
1282.00,0.0143
1281.00,0.0143
1280.00,0.0143
1279.00,0.0143
1278.00,0.0143
1277.00,0.0143
1276.00,0.0143
1275.00,0.0143
1274.00,0.0143
1273.00,0.0143
1272.00,0.0143
1271.00,0.0143
1270.00,0.0143
1269.00,0.0143
1268.00,0.0143
1267.00,0.0142
1266.00,0.0142
1265.00,0.0142
1264.00,0.0142
1263.00,0.0142
1262.00,0.0141
1261.00,0.0141
1260.00,0.0141
1259.00,0.0141
1258.00,0.0141
1257.00,0.0141
1256.00,0.0141
1255.00,0.0141
1254.00,0.0141
1253.00,0.0141
1252.00,0.0141
1251.00,0.0140
1250.00,0.0140
1249.00,0.0140
1248.00,0.0141
1247.00,0.0141
1246.00,0.0141
1245.00,0.0141
1244.00,0.0141
1243.00,0.0140
1242.00,0.0140
1241.00,0.0140
1240.00,0.0140
1239.00,0.0141
1238.00,0.0141
1237.00,0.0141
1236.00,0.0141
1235.00,0.0141
1234.00,0.0140
1233.00,0.0140
1232.00,0.0140
1231.00,0.0140
1230.00,0.0140
1229.00,0.0140
1228.00,0.0140
1227.00,0.0140
1226.00,0.0140
1225.00,0.0140
1224.00,0.0140
1223.00,0.0140
1222.00,0.0140
1221.00,0.0141
1220.00,0.0141
1219.00,0.0141
1218.00,0.0141
1217.00,0.0141
1216.00,0.0141
1215.00,0.0141
1214.00,0.0141
1213.00,0.0141
1212.00,0.0141
1211.00,0.0141
1210.00,0.0141
1209.00,0.0141
1208.00,0.0141
1207.00,0.0141
1206.00,0.0141
1205.00,0.0141
1204.00,0.0141
1203.00,0.0141
1202.00,0.0141
1201.00,0.0141
1200.00,0.0141
1199.00,0.0141
1198.00,0.0141
1197.00,0.0141
1196.00,0.0141
1195.00,0.0141
1194.00,0.0141
1193.00,0.0141
1192.00,0.0141
1191.00,0.0141
1190.00,0.0141
1189.00,0.0141
1188.00,0.0141
1187.00,0.0141
1186.00,0.0141
1185.00,0.0141
1184.00,0.0141
1183.00,0.0141
1182.00,0.0141
1181.00,0.0141
1180.00,0.0141
1179.00,0.0141
1178.00,0.0141
1177.00,0.0141
1176.00,0.0141
1175.00,0.0141
1174.00,0.0141
1173.00,0.0141
1172.00,0.0141
1171.00,0.0141
1170.00,0.0141
1169.00,0.0141
1168.00,0.0141
1167.00,0.0141
1166.00,0.0141
1165.00,0.0141
1164.00,0.0141
1163.00,0.0141
1162.00,0.0141
1161.00,0.0141
1160.00,0.0141
1159.00,0.0141
1158.00,0.0141
1157.00,0.0141
1156.00,0.0141
1155.00,0.0140
1154.00,0.0140
1153.00,0.0140
1152.00,0.0140
1151.00,0.0140
1150.00,0.0140
1149.00,0.0140
1148.00,0.0140
1147.00,0.0140
1146.00,0.0140
1145.00,0.0140
1144.00,0.0140
1143.00,0.0140
1142.00,0.0140
1141.00,0.0140
1140.00,0.0140
1139.00,0.0140
1138.00,0.0140
1137.00,0.0140
1136.00,0.0140
1135.00,0.0140
1134.00,0.0140
1133.00,0.0140
1132.00,0.0140
1131.00,0.0140
1130.00,0.0140
1129.00,0.0140
1128.00,0.0139
1127.00,0.0139
1126.00,0.0139
1125.00,0.0139
1124.00,0.0139
1123.00,0.0139
1122.00,0.0139
1121.00,0.0139
1120.00,0.0139
1119.00,0.0139
1118.00,0.0139
1117.00,0.0139
1116.00,0.0139
1115.00,0.0139
1114.00,0.0139
1113.00,0.0139
1112.00,0.0139
1111.00,0.0138
1110.00,0.0138
1109.00,0.0138
1108.00,0.0138
1107.00,0.0138
1106.00,0.0137
1105.00,0.0137
1104.00,0.0137
1103.00,0.0137
1102.00,0.0137
1101.00,0.0137
1100.00,0.0137
1099.00,0.0137
1098.00,0.0137
1097.00,0.0137
1096.00,0.0137
1095.00,0.0136
1094.00,0.0136
1093.00,0.0136
1092.00,0.0136
1091.00,0.0135
1090.00,0.0135
1089.00,0.0135
1088.00,0.0134
1087.00,0.0134
1086.00,0.0134
1085.00,0.0133
1084.00,0.0133
1083.00,0.0133
1082.00,0.0132
1081.00,0.0132
1080.00,0.0132
1079.00,0.0131
1078.00,0.0131
1077.00,0.0131
1076.00,0.0131
1075.00,0.0131
1074.00,0.0131
1073.00,0.0131
1072.00,0.0131
1071.00,0.0131
1070.00,0.0131
1069.00,0.0131
1068.00,0.0131
1067.00,0.0131
1066.00,0.0130
1065.00,0.0131
1064.00,0.0131
1063.00,0.0132
1062.00,0.0132
1061.00,0.0132
1060.00,0.0132
1059.00,0.0132
1058.00,0.0131
1057.00,0.0131
1056.00,0.0131
1055.00,0.0131
1054.00,0.0131
1053.00,0.0131
1052.00,0.0131
1051.00,0.0131
1050.00,0.0131
1049.00,0.0131
1048.00,0.0131
1047.00,0.0131
1046.00,0.0132
1045.00,0.0132
1044.00,0.0133
1043.00,0.0133
1042.00,0.0133
1041.00,0.0134
1040.00,0.0134
1039.00,0.0134
1038.00,0.0134
1037.00,0.0135
1036.00,0.0135
1035.00,0.0135
1034.00,0.0136
1033.00,0.0136
1032.00,0.0137
1031.00,0.0137
1030.00,0.0137
1029.00,0.0137
1028.00,0.0137
1027.00,0.0137
1026.00,0.0137
1025.00,0.0138
1024.00,0.0138
1023.00,0.0138
1022.00,0.0139
1021.00,0.0139
1020.00,0.0139
1019.00,0.0139
1018.00,0.0139
1017.00,0.0140
1016.00,0.0140
1015.00,0.0140
1014.00,0.0140
1013.00,0.0140
1012.00,0.0141
1011.00,0.0141
1010.00,0.0141
1009.00,0.0141
1008.00,0.0141
1007.00,0.0142
1006.00,0.0142
1005.00,0.0142
1004.00,0.0142
1003.00,0.0142
1002.00,0.0143
1001.00,0.0143
1000.00,0.0143
999.00,0.0143
998.00,0.0143
997.00,0.0143
996.00,0.0143
995.00,0.0143
994.00,0.0143
993.00,0.0144
992.00,0.0144
991.00,0.0144
990.00,0.0144
989.00,0.0144
988.00,0.0144
987.00,0.0144
986.00,0.0144
985.00,0.0144
984.00,0.0144
983.00,0.0144
982.00,0.0144
981.00,0.0144
980.00,0.0144
979.00,0.0144
978.00,0.0144
977.00,0.0144
976.00,0.0144
975.00,0.0144
974.00,0.0144
973.00,0.0144
972.00,0.0144
971.00,0.0144
970.00,0.0145
969.00,0.0145
968.00,0.0145
967.00,0.0145
966.00,0.0145
965.00,0.0145
964.00,0.0145
963.00,0.0145
962.00,0.0145
961.00,0.0145
960.00,0.0145
959.00,0.0145
958.00,0.0145
957.00,0.0145
956.00,0.0145
955.00,0.0145
954.00,0.0146
953.00,0.0146
952.00,0.0146
951.00,0.0146
950.00,0.0145
949.00,0.0145
948.00,0.0145
947.00,0.0145
946.00,0.0145
945.00,0.0145
944.00,0.0145
943.00,0.0145
942.00,0.0145
941.00,0.0145
940.00,0.0145
939.00,0.0145
938.00,0.0145
937.00,0.0145
936.00,0.0145
935.00,0.0145
934.00,0.0145
933.00,0.0145
932.00,0.0146
931.00,0.0146
930.00,0.0146
929.00,0.0145
928.00,0.0145
927.00,0.0145
926.00,0.0145
925.00,0.0145
924.00,0.0145
923.00,0.0146
922.00,0.0146
921.00,0.0145
920.00,0.0145
919.00,0.0145
918.00,0.0145
917.00,0.0145
916.00,0.0145
915.00,0.0145
914.00,0.0145
913.00,0.0145
912.00,0.0145
911.00,0.0145
910.00,0.0145
909.00,0.0145
908.00,0.0144
907.00,0.0144
906.00,0.0144
905.00,0.0144
904.00,0.0144
903.00,0.0144
902.00,0.0144
901.00,0.0144
900.00,0.0144
899.00,0.0144
898.00,0.0144
897.00,0.0144
896.00,0.0144
895.00,0.0144
894.00,0.0143
893.00,0.0143
892.00,0.0143
891.00,0.0143
890.00,0.0143
889.00,0.0144
888.00,0.0144
887.00,0.0144
886.00,0.0144
885.00,0.0144
884.00,0.0144
883.00,0.0143
882.00,0.0143
881.00,0.0143
880.00,0.0143
879.00,0.0143
878.00,0.0143
877.00,0.0143
876.00,0.0143
875.00,0.0143
874.00,0.0143
873.00,0.0143
872.00,0.0143
871.00,0.0143
870.00,0.0143
869.00,0.0143
868.00,0.0143
867.00,0.0143
866.00,0.0143
865.00,0.0143
864.00,0.0143
863.00,0.0143
862.00,0.0143
861.00,0.0144
860.00,0.0144
859.00,0.0143
858.00,0.0143
857.00,0.0143
856.00,0.0143
855.00,0.0143
854.00,0.0143
853.00,0.0143
852.00,0.0143
851.00,0.0143
850.00,0.0143
849.00,0.0143
848.00,0.0143
847.00,0.0143
846.00,0.0143
845.00,0.0143
844.00,0.0143
843.00,0.0143
842.00,0.0143
841.00,0.0143
840.00,0.0143
839.00,0.0143
838.00,0.0142
837.00,0.0142
836.00,0.0142
835.00,0.0142
834.00,0.0142
833.00,0.0142
832.00,0.0142
831.00,0.0142
830.00,0.0142
829.00,0.0142
828.00,0.0142
827.00,0.0141
826.00,0.0141
825.00,0.0141
824.00,0.0141
823.00,0.0141
822.00,0.0141
821.00,0.0141
820.00,0.0141
819.00,0.0141
818.00,0.0141
817.00,0.0141
816.00,0.0141
815.00,0.0141
814.00,0.0141
813.00,0.0141
812.00,0.0141
811.00,0.0141
810.00,0.0141
809.00,0.0141
808.00,0.0141
807.00,0.0141
806.00,0.0141
805.00,0.0141
804.00,0.0140
803.00,0.0140
802.00,0.0140
801.00,0.0140
800.00,0.0140
799.00,0.0140
798.00,0.0140
797.00,0.0140
796.00,0.0140
795.00,0.0140
794.00,0.0140
793.00,0.0140
792.00,0.0140
791.00,0.0140
790.00,0.0141
789.00,0.0141
788.00,0.0141
787.00,0.0140
786.00,0.0141
785.00,0.0141
784.00,0.0141
783.00,0.0141
782.00,0.0140
781.00,0.0140
780.00,0.0140
779.00,0.0140
778.00,0.0140
777.00,0.0141
776.00,0.0141
775.00,0.0141
774.00,0.0141
773.00,0.0141
772.00,0.0140
771.00,0.0140
770.00,0.0140
769.00,0.0140
768.00,0.0140
767.00,0.0140
766.00,0.0140
765.00,0.0140
764.00,0.0140
763.00,0.0140
762.00,0.0140
761.00,0.0140
760.00,0.0140
759.00,0.0140
758.00,0.0140
757.00,0.0140
756.00,0.0140
755.00,0.0140
754.00,0.0139
753.00,0.0139
752.00,0.0139
751.00,0.0139
750.00,0.0139
749.00,0.0139
748.00,0.0139
747.00,0.0140
746.00,0.0140
745.00,0.0140
744.00,0.0140
743.00,0.0139
742.00,0.0139
741.00,0.0139
740.00,0.0139
739.00,0.0139
738.00,0.0139
737.00,0.0139
736.00,0.0139
735.00,0.0139
734.00,0.0139
733.00,0.0139
732.00,0.0139
731.00,0.0139
730.00,0.0139
729.00,0.0139
728.00,0.0139
727.00,0.0139
726.00,0.0139
725.00,0.0139
724.00,0.0139
723.00,0.0139
722.00,0.0139
721.00,0.0140
720.00,0.0140
719.00,0.0140
718.00,0.0139
717.00,0.0139
716.00,0.0138
715.00,0.0138
714.00,0.0138
713.00,0.0138
712.00,0.0138
711.00,0.0138
710.00,0.0138
709.00,0.0138
708.00,0.0138
707.00,0.0138
706.00,0.0138
705.00,0.0138
704.00,0.0138
703.00,0.0138
702.00,0.0138
701.00,0.0138
700.00,0.0138
699.00,0.0138
698.00,0.0138
697.00,0.0137
696.00,0.0137
695.00,0.0137
694.00,0.0137
693.00,0.0137
692.00,0.0137
691.00,0.0137
690.00,0.0137
689.00,0.0137
688.00,0.0137
687.00,0.0136
686.00,0.0136
685.00,0.0136
684.00,0.0136
683.00,0.0136
682.00,0.0136
681.00,0.0136
680.00,0.0135
679.00,0.0135
678.00,0.0135
677.00,0.0135
676.00,0.0135
675.00,0.0135
674.00,0.0135
673.00,0.0134
672.00,0.0133
671.00,0.0131
670.00,0.0129
669.00,0.0127
668.00,0.0128
667.00,0.0128
666.00,0.0129
665.00,0.0131
664.00,0.0132
663.00,0.0133
662.00,0.0133
661.00,0.0133
660.00,0.0133
659.00,0.0133
658.00,0.0133
657.00,0.0133
656.00,0.0133
655.00,0.0133
654.00,0.0133
653.00,0.0133
652.00,0.0134
651.00,0.0134
650.00,0.0133
649.00,0.0133
648.00,0.0133
647.00,0.0133
646.00,0.0133
645.00,0.0133
644.00,0.0133
643.00,0.0133
642.00,0.0133
641.00,0.0133
640.00,0.0133
639.00,0.0133
638.00,0.0133
637.00,0.0133
636.00,0.0133
635.00,0.0133
634.00,0.0132
633.00,0.0132
632.00,0.0132
631.00,0.0132
630.00,0.0131
629.00,0.0131
628.00,0.0131
627.00,0.0131
626.00,0.0131
625.00,0.0131
624.00,0.0131
623.00,0.0130
622.00,0.0130
621.00,0.0130
620.00,0.0130
619.00,0.0129
618.00,0.0129
617.00,0.0129
616.00,0.0129
615.00,0.0129
614.00,0.0129
613.00,0.0129
612.00,0.0129
611.00,0.0128
610.00,0.0129
609.00,0.0129
608.00,0.0129
607.00,0.0129
606.00,0.0128
605.00,0.0128
604.00,0.0128
603.00,0.0128
602.00,0.0128
601.00,0.0129
600.00,0.0129
599.00,0.0129
598.00,0.0129
597.00,0.0129
596.00,0.0129
595.00,0.0129
594.00,0.0129
593.00,0.0129
592.00,0.0129
591.00,0.0129
590.00,0.0129
589.00,0.0129
588.00,0.0129
587.00,0.0129
586.00,0.0129
585.00,0.0128
584.00,0.0128
583.00,0.0128
582.00,0.0128
581.00,0.0128
580.00,0.0128
579.00,0.0127
578.00,0.0127
577.00,0.0127
576.00,0.0127
575.00,0.0127
574.00,0.0126
573.00,0.0126
572.00,0.0126
571.00,0.0126
570.00,0.0126
569.00,0.0126
568.00,0.0126
567.00,0.0126
566.00,0.0125
565.00,0.0125
564.00,0.0125
563.00,0.0125
562.00,0.0125
561.00,0.0125
560.00,0.0125
559.00,0.0125
558.00,0.0124
557.00,0.0125
556.00,0.0125
555.00,0.0125
554.00,0.0125
553.00,0.0126
552.00,0.0126
551.00,0.0126
550.00,0.0126
549.00,0.0127
548.00,0.0126
547.00,0.0126
546.00,0.0126
545.00,0.0126
544.00,0.0126
543.00,0.0126
542.00,0.0126
541.00,0.0126
540.00,0.0126
539.00,0.0126
538.00,0.0126
537.00,0.0127
536.00,0.0127
535.00,0.0127
534.00,0.0127
533.00,0.0127
532.00,0.0127
531.00,0.0126
530.00,0.0126
529.00,0.0126
528.00,0.0126
527.00,0.0126
526.00,0.0126
525.00,0.0126
524.00,0.0126
523.00,0.0126
522.00,0.0126
521.00,0.0126
520.00,0.0125
519.00,0.0125
518.00,0.0125
517.00,0.0125
516.00,0.0125
515.00,0.0125
514.00,0.0125
513.00,0.0125
512.00,0.0125
511.00,0.0125
510.00,0.0125
509.00,0.0125
508.00,0.0126
507.00,0.0126
506.00,0.0126
505.00,0.0126
504.00,0.0126
503.00,0.0126
502.00,0.0125
501.00,0.0125
500.00,0.0124
