Created as New Dataset,Sample 026 By Analyst Date Friday, March 28 2025
cm-1,A
4000.00,-0.0006
3999.00,-0.0006
3998.00,-0.0006
3997.00,-0.0006
3996.00,-0.0006
3995.00,-0.0006
3994.00,-0.0006
3993.00,-0.0006
3992.00,-0.0006
3991.00,-0.0006
3990.00,-0.0006
3989.00,-0.0006
3988.00,-0.0006
3987.00,-0.0005
3986.00,-0.0005
3985.00,-0.0005
3984.00,-0.0005
3983.00,-0.0006
3982.00,-0.0006
3981.00,-0.0006
3980.00,-0.0006
3979.00,-0.0005
3978.00,-0.0005
3977.00,-0.0005
3976.00,-0.0006
3975.00,-0.0006
3974.00,-0.0006
3973.00,-0.0005
3972.00,-0.0005
3971.00,-0.0005
3970.00,-0.0005
3969.00,-0.0005
3968.00,-0.0005
3967.00,-0.0005
3966.00,-0.0005
3965.00,-0.0005
3964.00,-0.0005
3963.00,-0.0005
3962.00,-0.0005
3961.00,-0.0005
3960.00,-0.0005
3959.00,-0.0005
3958.00,-0.0005
3957.00,-0.0005
3956.00,-0.0005
3955.00,-0.0006
3954.00,-0.0006
3953.00,-0.0006
3952.00,-0.0006
3951.00,-0.0006
3950.00,-0.0006
3949.00,-0.0005
3948.00,-0.0005
3947.00,-0.0005
3946.00,-0.0005
3945.00,-0.0005
3944.00,-0.0006
3943.00,-0.0006
3942.00,-0.0006
3941.00,-0.0006
3940.00,-0.0006
3939.00,-0.0005
3938.00,-0.0005
3937.00,-0.0005
3936.00,-0.0005
3935.00,-0.0005
3934.00,-0.0005
3933.00,-0.0005
3932.00,-0.0005
3931.00,-0.0005
3930.00,-0.0005
3929.00,-0.0005
3928.00,-0.0006
3927.00,-0.0006
3926.00,-0.0006
3925.00,-0.0006
3924.00,-0.0006
3923.00,-0.0006
3922.00,-0.0005
3921.00,-0.0005
3920.00,-0.0005
3919.00,-0.0006
3918.00,-0.0006
3917.00,-0.0006
3916.00,-0.0006
3915.00,-0.0006
3914.00,-0.0006
3913.00,-0.0006
3912.00,-0.0005
3911.00,-0.0005
3910.00,-0.0005
3909.00,-0.0005
3908.00,-0.0005
3907.00,-0.0005
3906.00,-0.0005
3905.00,-0.0005
3904.00,-0.0006
3903.00,-0.0006
3902.00,-0.0006
3901.00,-0.0006
3900.00,-0.0006
3899.00,-0.0006
3898.00,-0.0006
3897.00,-0.0006
3896.00,-0.0006
3895.00,-0.0006
3894.00,-0.0006
3893.00,-0.0006
3892.00,-0.0005
3891.00,-0.0005
3890.00,-0.0005
3889.00,-0.0005
3888.00,-0.0005
3887.00,-0.0006
3886.00,-0.0006
3885.00,-0.0006
3884.00,-0.0006
3883.00,-0.0005
3882.00,-0.0005
3881.00,-0.0006
3880.00,-0.0006
3879.00,-0.0005
3878.00,-0.0005
3877.00,-0.0005
3876.00,-0.0005
3875.00,-0.0005
3874.00,-0.0005
3873.00,-0.0005
3872.00,-0.0005
3871.00,-0.0005
3870.00,-0.0005
3869.00,-0.0005
3868.00,-0.0005
3867.00,-0.0005
3866.00,-0.0005
3865.00,-0.0005
3864.00,-0.0005
3863.00,-0.0005
3862.00,-0.0005
3861.00,-0.0005
3860.00,-0.0005
3859.00,-0.0005
3858.00,-0.0005
3857.00,-0.0005
3856.00,-0.0005
3855.00,-0.0005
3854.00,-0.0005
3853.00,-0.0005
3852.00,-0.0005
3851.00,-0.0005
3850.00,-0.0005
3849.00,-0.0005
3848.00,-0.0005
3847.00,-0.0005
3846.00,-0.0005
3845.00,-0.0005
3844.00,-0.0005
3843.00,-0.0005
3842.00,-0.0005
3841.00,-0.0005
3840.00,-0.0005
3839.00,-0.0005
3838.00,-0.0005
3837.00,-0.0005
3836.00,-0.0005
3835.00,-0.0005
3834.00,-0.0005
3833.00,-0.0005
3832.00,-0.0005
3831.00,-0.0005
3830.00,-0.0005
3829.00,-0.0005
3828.00,-0.0005
3827.00,-0.0005
3826.00,-0.0005
3825.00,-0.0005
3824.00,-0.0005
3823.00,-0.0006
3822.00,-0.0006
3821.00,-0.0006
3820.00,-0.0005
3819.00,-0.0005
3818.00,-0.0005
3817.00,-0.0005
3816.00,-0.0005
3815.00,-0.0005
3814.00,-0.0005
3813.00,-0.0005
3812.00,-0.0005
3811.00,-0.0005
3810.00,-0.0005
3809.00,-0.0005
3808.00,-0.0005
3807.00,-0.0005
3806.00,-0.0005
3805.00,-0.0005
3804.00,-0.0005
3803.00,-0.0005
3802.00,-0.0005
3801.00,-0.0005
3800.00,-0.0005
3799.00,-0.0005
3798.00,-0.0005
3797.00,-0.0005
3796.00,-0.0005
3795.00,-0.0004
3794.00,-0.0004
3793.00,-0.0004
3792.00,-0.0004
3791.00,-0.0004
3790.00,-0.0004
3789.00,-0.0004
3788.00,-0.0004
3787.00,-0.0004
3786.00,-0.0004
3785.00,-0.0004
3784.00,-0.0004
3783.00,-0.0004
3782.00,-0.0004
3781.00,-0.0004
3780.00,-0.0004
3779.00,-0.0004
3778.00,-0.0004
3777.00,-0.0004
3776.00,-0.0005
3775.00,-0.0005
3774.00,-0.0005
3773.00,-0.0005
3772.00,-0.0005
3771.00,-0.0005
3770.00,-0.0005
3769.00,-0.0005
3768.00,-0.0005
3767.00,-0.0005
3766.00,-0.0004
3765.00,-0.0004
3764.00,-0.0004
3763.00,-0.0005
3762.00,-0.0005
3761.00,-0.0005
3760.00,-0.0005
3759.00,-0.0005
3758.00,-0.0005
3757.00,-0.0005
3756.00,-0.0004
3755.00,-0.0004
3754.00,-0.0004
3753.00,-0.0004
3752.00,-0.0004
3751.00,-0.0004
3750.00,-0.0005
3749.00,-0.0005
3748.00,-0.0005
3747.00,-0.0005
3746.00,-0.0005
3745.00,-0.0005
3744.00,-0.0005
3743.00,-0.0004
3742.00,-0.0004
3741.00,-0.0004
3740.00,-0.0005
3739.00,-0.0005
3738.00,-0.0005
3737.00,-0.0005
3736.00,-0.0005
3735.00,-0.0005
3734.00,-0.0005
3733.00,-0.0005
3732.00,-0.0005
3731.00,-0.0005
3730.00,-0.0005
3729.00,-0.0004
3728.00,-0.0004
3727.00,-0.0004
3726.00,-0.0004
3725.00,-0.0004
3724.00,-0.0004
3723.00,-0.0005
3722.00,-0.0005
3721.00,-0.0004
3720.00,-0.0004
3719.00,-0.0004
3718.00,-0.0004
3717.00,-0.0004
3716.00,-0.0004
3715.00,-0.0004
3714.00,-0.0004
3713.00,-0.0004
3712.00,-0.0004
3711.00,-0.0004
3710.00,-0.0004
3709.00,-0.0004
3708.00,-0.0004
3707.00,-0.0004
3706.00,-0.0004
3705.00,-0.0004
3704.00,-0.0005
3703.00,-0.0005
3702.00,-0.0005
3701.00,-0.0005
3700.00,-0.0004
3699.00,-0.0004
3698.00,-0.0004
3697.00,-0.0004
3696.00,-0.0004
3695.00,-0.0004
3694.00,-0.0005
3693.00,-0.0005
3692.00,-0.0005
3691.00,-0.0005
3690.00,-0.0004
3689.00,-0.0004
3688.00,-0.0004
3687.00,-0.0004
3686.00,-0.0004
3685.00,-0.0004
3684.00,-0.0004
3683.00,-0.0004
3682.00,-0.0004
3681.00,-0.0004
3680.00,-0.0004
3679.00,-0.0004
3678.00,-0.0004
3677.00,-0.0004
3676.00,-0.0004
3675.00,-0.0004
3674.00,-0.0004
3673.00,-0.0004
3672.00,-0.0004
3671.00,-0.0004
3670.00,-0.0004
3669.00,-0.0004
3668.00,-0.0004
3667.00,-0.0004
3666.00,-0.0004
3665.00,-0.0004
3664.00,-0.0004
3663.00,-0.0004
3662.00,-0.0004
3661.00,-0.0004
3660.00,-0.0004
3659.00,-0.0004
3658.00,-0.0004
3657.00,-0.0004
3656.00,-0.0004
3655.00,-0.0004
3654.00,-0.0004
3653.00,-0.0004
3652.00,-0.0005
3651.00,-0.0005
3650.00,-0.0005
3649.00,-0.0004
3648.00,-0.0004
3647.00,-0.0004
3646.00,-0.0004
3645.00,-0.0004
3644.00,-0.0004
3643.00,-0.0004
3642.00,-0.0004
3641.00,-0.0004
3640.00,-0.0004
3639.00,-0.0004
3638.00,-0.0004
3637.00,-0.0004
3636.00,-0.0004
3635.00,-0.0005
3634.00,-0.0005
3633.00,-0.0005
3632.00,-0.0005
3631.00,-0.0005
3630.00,-0.0005
3629.00,-0.0005
3628.00,-0.0005
3627.00,-0.0005
3626.00,-0.0005
3625.00,-0.0005
3624.00,-0.0005
3623.00,-0.0004
3622.00,-0.0004
3621.00,-0.0005
3620.00,-0.0005
3619.00,-0.0005
3618.00,-0.0005
3617.00,-0.0005
3616.00,-0.0005
3615.00,-0.0005
3614.00,-0.0005
3613.00,-0.0005
3612.00,-0.0005
3611.00,-0.0005
3610.00,-0.0005
3609.00,-0.0005
3608.00,-0.0005
3607.00,-0.0005
3606.00,-0.0005
3605.00,-0.0005
3604.00,-0.0005
3603.00,-0.0005
3602.00,-0.0004
3601.00,-0.0004
3600.00,-0.0004
3599.00,-0.0004
3598.00,-0.0005
3597.00,-0.0005
3596.00,-0.0005
3595.00,-0.0005
3594.00,-0.0005
3593.00,-0.0004
3592.00,-0.0004
3591.00,-0.0004
3590.00,-0.0004
3589.00,-0.0004
3588.00,-0.0004
3587.00,-0.0004
3586.00,-0.0005
3585.00,-0.0005
3584.00,-0.0005
3583.00,-0.0004
3582.00,-0.0004
3581.00,-0.0004
3580.00,-0.0004
3579.00,-0.0005
3578.00,-0.0005
3577.00,-0.0005
3576.00,-0.0005
3575.00,-0.0005
3574.00,-0.0005
3573.00,-0.0005
3572.00,-0.0005
3571.00,-0.0005
3570.00,-0.0005
3569.00,-0.0005
3568.00,-0.0005
3567.00,-0.0005
3566.00,-0.0005
3565.00,-0.0005
3564.00,-0.0005
3563.00,-0.0004
3562.00,-0.0004
3561.00,-0.0004
3560.00,-0.0004
3559.00,-0.0004
3558.00,-0.0004
3557.00,-0.0005
3556.00,-0.0005
3555.00,-0.0005
3554.00,-0.0005
3553.00,-0.0005
3552.00,-0.0005
3551.00,-0.0005
3550.00,-0.0005
3549.00,-0.0005
3548.00,-0.0005
3547.00,-0.0005
3546.00,-0.0005
3545.00,-0.0005
3544.00,-0.0005
3543.00,-0.0005
3542.00,-0.0005
3541.00,-0.0005
3540.00,-0.0005
3539.00,-0.0005
3538.00,-0.0005
3537.00,-0.0005
3536.00,-0.0005
3535.00,-0.0005
3534.00,-0.0005
3533.00,-0.0005
3532.00,-0.0005
3531.00,-0.0005
3530.00,-0.0005
3529.00,-0.0004
3528.00,-0.0004
3527.00,-0.0005
3526.00,-0.0005
3525.00,-0.0005
3524.00,-0.0005
3523.00,-0.0005
3522.00,-0.0005
3521.00,-0.0005
3520.00,-0.0005
3519.00,-0.0005
3518.00,-0.0005
3517.00,-0.0005
3516.00,-0.0005
3515.00,-0.0005
3514.00,-0.0005
3513.00,-0.0005
3512.00,-0.0005
3511.00,-0.0005
3510.00,-0.0005
3509.00,-0.0005
3508.00,-0.0005
3507.00,-0.0005
3506.00,-0.0005
3505.00,-0.0005
3504.00,-0.0005
3503.00,-0.0005
3502.00,-0.0005
3501.00,-0.0005
3500.00,-0.0005
3499.00,-0.0005
3498.00,-0.0005
3497.00,-0.0005
3496.00,-0.0005
3495.00,-0.0005
3494.00,-0.0005
3493.00,-0.0005
3492.00,-0.0005
3491.00,-0.0005
3490.00,-0.0005
3489.00,-0.0005
3488.00,-0.0005
3487.00,-0.0005
3486.00,-0.0005
3485.00,-0.0005
3484.00,-0.0005
3483.00,-0.0005
3482.00,-0.0005
3481.00,-0.0005
3480.00,-0.0005
3479.00,-0.0005
3478.00,-0.0005
3477.00,-0.0005
3476.00,-0.0005
3475.00,-0.0005
3474.00,-0.0005
3473.00,-0.0005
3472.00,-0.0005
3471.00,-0.0005
3470.00,-0.0005
3469.00,-0.0006
3468.00,-0.0006
3467.00,-0.0006
3466.00,-0.0006
3465.00,-0.0006
3464.00,-0.0006
3463.00,-0.0006
3462.00,-0.0005
3461.00,-0.0005
3460.00,-0.0005
3459.00,-0.0005
3458.00,-0.0005
3457.00,-0.0005
3456.00,-0.0005
3455.00,-0.0005
3454.00,-0.0005
3453.00,-0.0005
3452.00,-0.0005
3451.00,-0.0005
3450.00,-0.0005
3449.00,-0.0005
3448.00,-0.0006
3447.00,-0.0006
3446.00,-0.0006
3445.00,-0.0006
3444.00,-0.0006
3443.00,-0.0006
3442.00,-0.0005
3441.00,-0.0006
3440.00,-0.0006
3439.00,-0.0006
3438.00,-0.0006
3437.00,-0.0005
3436.00,-0.0005
3435.00,-0.0005
3434.00,-0.0005
3433.00,-0.0005
3432.00,-0.0005
3431.00,-0.0006
3430.00,-0.0006
3429.00,-0.0006
3428.00,-0.0006
3427.00,-0.0006
3426.00,-0.0006
3425.00,-0.0006
3424.00,-0.0005
3423.00,-0.0005
3422.00,-0.0005
3421.00,-0.0006
3420.00,-0.0006
3419.00,-0.0006
3418.00,-0.0006
3417.00,-0.0006
3416.00,-0.0006
3415.00,-0.0006
3414.00,-0.0006
3413.00,-0.0006
3412.00,-0.0006
3411.00,-0.0006
3410.00,-0.0006
3409.00,-0.0006
3408.00,-0.0006
3407.00,-0.0005
3406.00,-0.0005
3405.00,-0.0005
3404.00,-0.0005
3403.00,-0.0005
3402.00,-0.0006
3401.00,-0.0006
3400.00,-0.0006
3399.00,-0.0006
3398.00,-0.0006
3397.00,-0.0006
3396.00,-0.0006
3395.00,-0.0006
3394.00,-0.0006
3393.00,-0.0006
3392.00,-0.0006
3391.00,-0.0005
3390.00,-0.0005
3389.00,-0.0005
3388.00,-0.0006
3387.00,-0.0006
3386.00,-0.0006
3385.00,-0.0006
3384.00,-0.0006
3383.00,-0.0006
3382.00,-0.0006
3381.00,-0.0006
3380.00,-0.0005
3379.00,-0.0005
3378.00,-0.0005
3377.00,-0.0005
3376.00,-0.0005
3375.00,-0.0006
3374.00,-0.0006
3373.00,-0.0006
3372.00,-0.0006
3371.00,-0.0006
3370.00,-0.0006
3369.00,-0.0005
3368.00,-0.0005
3367.00,-0.0005
3366.00,-0.0005
3365.00,-0.0005
3364.00,-0.0006
3363.00,-0.0006
3362.00,-0.0006
3361.00,-0.0006
3360.00,-0.0006
3359.00,-0.0006
3358.00,-0.0006
3357.00,-0.0006
3356.00,-0.0005
3355.00,-0.0005
3354.00,-0.0006
3353.00,-0.0006
3352.00,-0.0005
3351.00,-0.0005
3350.00,-0.0005
3349.00,-0.0005
3348.00,-0.0005
3347.00,-0.0005
3346.00,-0.0005
3345.00,-0.0005
3344.00,-0.0005
3343.00,-0.0005
3342.00,-0.0005
3341.00,-0.0005
3340.00,-0.0005
3339.00,-0.0005
3338.00,-0.0005
3337.00,-0.0005
3336.00,-0.0005
3335.00,-0.0005
3334.00,-0.0005
3333.00,-0.0005
3332.00,-0.0005
3331.00,-0.0005
3330.00,-0.0005
3329.00,-0.0005
3328.00,-0.0005
3327.00,-0.0005
3326.00,-0.0005
3325.00,-0.0005
3324.00,-0.0005
3323.00,-0.0005
3322.00,-0.0005
3321.00,-0.0005
3320.00,-0.0005
3319.00,-0.0005
3318.00,-0.0005
3317.00,-0.0005
3316.00,-0.0005
3315.00,-0.0005
3314.00,-0.0005
3313.00,-0.0005
3312.00,-0.0005
3311.00,-0.0005
3310.00,-0.0005
3309.00,-0.0005
3308.00,-0.0005
3307.00,-0.0005
3306.00,-0.0005
3305.00,-0.0005
3304.00,-0.0005
3303.00,-0.0005
3302.00,-0.0005
3301.00,-0.0005
3300.00,-0.0005
3299.00,-0.0005
3298.00,-0.0005
3297.00,-0.0005
3296.00,-0.0005
3295.00,-0.0005
3294.00,-0.0005
3293.00,-0.0005
3292.00,-0.0005
3291.00,-0.0005
3290.00,-0.0005
3289.00,-0.0005
3288.00,-0.0005
3287.00,-0.0005
3286.00,-0.0005
3285.00,-0.0005
3284.00,-0.0005
3283.00,-0.0005
3282.00,-0.0005
3281.00,-0.0005
3280.00,-0.0005
3279.00,-0.0004
3278.00,-0.0004
3277.00,-0.0004
3276.00,-0.0004
3275.00,-0.0004
3274.00,-0.0004
3273.00,-0.0005
3272.00,-0.0005
3271.00,-0.0005
3270.00,-0.0005
3269.00,-0.0004
3268.00,-0.0004
3267.00,-0.0004
3266.00,-0.0004
3265.00,-0.0004
3264.00,-0.0004
3263.00,-0.0004
3262.00,-0.0004
3261.00,-0.0005
3260.00,-0.0005
3259.00,-0.0005
3258.00,-0.0005
3257.00,-0.0005
3256.00,-0.0005
3255.00,-0.0005
3254.00,-0.0005
3253.00,-0.0005
3252.00,-0.0005
3251.00,-0.0005
3250.00,-0.0004
3249.00,-0.0004
3248.00,-0.0004
3247.00,-0.0005
3246.00,-0.0005
3245.00,-0.0005
3244.00,-0.0005
3243.00,-0.0005
3242.00,-0.0005
3241.00,-0.0005
3240.00,-0.0005
3239.00,-0.0005
3238.00,-0.0005
3237.00,-0.0005
3236.00,-0.0005
3235.00,-0.0005
3234.00,-0.0005
3233.00,-0.0005
3232.00,-0.0005
3231.00,-0.0005
3230.00,-0.0004
3229.00,-0.0004
3228.00,-0.0004
3227.00,-0.0005
3226.00,-0.0005
3225.00,-0.0005
3224.00,-0.0004
3223.00,-0.0004
3222.00,-0.0004
3221.00,-0.0004
3220.00,-0.0004
3219.00,-0.0004
3218.00,-0.0004
3217.00,-0.0004
3216.00,-0.0004
3215.00,-0.0004
3214.00,-0.0004
3213.00,-0.0004
3212.00,-0.0004
3211.00,-0.0004
3210.00,-0.0004
3209.00,-0.0004
3208.00,-0.0004
3207.00,-0.0004
3206.00,-0.0004
3205.00,-0.0004
3204.00,-0.0004
3203.00,-0.0004
3202.00,-0.0004
3201.00,-0.0004
3200.00,-0.0004
3199.00,-0.0004
3198.00,-0.0004
3197.00,-0.0004
3196.00,-0.0004
3195.00,-0.0005
3194.00,-0.0005
3193.00,-0.0004
3192.00,-0.0004
3191.00,-0.0004
3190.00,-0.0004
3189.00,-0.0004
3188.00,-0.0004
3187.00,-0.0004
3186.00,-0.0004
3185.00,-0.0004
3184.00,-0.0004
3183.00,-0.0004
3182.00,-0.0004
3181.00,-0.0004
3180.00,-0.0004
3179.00,-0.0004
3178.00,-0.0004
3177.00,-0.0004
3176.00,-0.0004
3175.00,-0.0004
3174.00,-0.0004
3173.00,-0.0004
3172.00,-0.0004
3171.00,-0.0004
3170.00,-0.0004
3169.00,-0.0004
3168.00,-0.0004
3167.00,-0.0004
3166.00,-0.0004
3165.00,-0.0004
3164.00,-0.0004
3163.00,-0.0004
3162.00,-0.0004
3161.00,-0.0004
3160.00,-0.0004
3159.00,-0.0004
3158.00,-0.0004
3157.00,-0.0004
3156.00,-0.0004
3155.00,-0.0004
3154.00,-0.0004
3153.00,-0.0004
3152.00,-0.0004
3151.00,-0.0004
3150.00,-0.0004
3149.00,-0.0004
3148.00,-0.0004
3147.00,-0.0004
3146.00,-0.0004
3145.00,-0.0004
3144.00,-0.0004
3143.00,-0.0003
3142.00,-0.0003
3141.00,-0.0004
3140.00,-0.0004
3139.00,-0.0004
3138.00,-0.0004
3137.00,-0.0004
3136.00,-0.0004
3135.00,-0.0004
3134.00,-0.0004
3133.00,-0.0004
3132.00,-0.0004
3131.00,-0.0003
3130.00,-0.0003
3129.00,-0.0003
3128.00,-0.0003
3127.00,-0.0003
3126.00,-0.0004
3125.00,-0.0004
3124.00,-0.0004
3123.00,-0.0004
3122.00,-0.0004
3121.00,-0.0004
3120.00,-0.0004
3119.00,-0.0004
3118.00,-0.0004
3117.00,-0.0004
3116.00,-0.0004
3115.00,-0.0004
3114.00,-0.0004
3113.00,-0.0004
3112.00,-0.0004
3111.00,-0.0004
3110.00,-0.0004
3109.00,-0.0004
3108.00,-0.0004
3107.00,-0.0004
3106.00,-0.0004
3105.00,-0.0004
3104.00,-0.0004
3103.00,-0.0003
3102.00,-0.0003
3101.00,-0.0003
3100.00,-0.0003
3099.00,-0.0003
3098.00,-0.0004
3097.00,-0.0003
3096.00,-0.0003
3095.00,-0.0004
3094.00,-0.0004
3093.00,-0.0004
3092.00,-0.0004
3091.00,-0.0004
3090.00,-0.0004
3089.00,-0.0004
3088.00,-0.0003
3087.00,-0.0003
3086.00,-0.0003
3085.00,-0.0003
3084.00,-0.0003
3083.00,-0.0003
3082.00,-0.0003
3081.00,-0.0003
3080.00,-0.0004
3079.00,-0.0004
3078.00,-0.0004
3077.00,-0.0004
3076.00,-0.0003
3075.00,-0.0003
3074.00,-0.0003
3073.00,-0.0003
3072.00,-0.0003
3071.00,-0.0003
3070.00,-0.0003
3069.00,-0.0003
3068.00,-0.0003
3067.00,-0.0003
3066.00,-0.0003
3065.00,-0.0003
3064.00,-0.0003
3063.00,-0.0003
3062.00,-0.0003
3061.00,-0.0003
3060.00,-0.0003
3059.00,-0.0003
3058.00,-0.0003
3057.00,-0.0003
3056.00,-0.0003
3055.00,-0.0004
3054.00,-0.0004
3053.00,-0.0004
3052.00,-0.0003
3051.00,-0.0003
3050.00,-0.0003
3049.00,-0.0003
3048.00,-0.0003
3047.00,-0.0003
3046.00,-0.0003
3045.00,-0.0003
3044.00,-0.0003
3043.00,-0.0003
3042.00,-0.0004
3041.00,-0.0004
3040.00,-0.0004
3039.00,-0.0004
3038.00,-0.0004
3037.00,-0.0003
3036.00,-0.0003
3035.00,-0.0003
3034.00,-0.0003
3033.00,-0.0003
3032.00,-0.0003
3031.00,-0.0003
3030.00,-0.0003
3029.00,-0.0003
3028.00,-0.0003
3027.00,-0.0003
3026.00,-0.0003
3025.00,-0.0003
3024.00,-0.0003
3023.00,-0.0003
3022.00,-0.0003
3021.00,-0.0003
3020.00,-0.0003
3019.00,-0.0003
3018.00,-0.0003
3017.00,-0.0003
3016.00,-0.0003
3015.00,-0.0003
3014.00,-0.0003
3013.00,-0.0003
3012.00,-0.0003
3011.00,-0.0003
3010.00,-0.0003
3009.00,-0.0003
3008.00,-0.0003
3007.00,-0.0003
3006.00,-0.0003
3005.00,-0.0003
3004.00,-0.0003
3003.00,-0.0003
3002.00,-0.0003
3001.00,-0.0003
3000.00,-0.0003
2999.00,-0.0003
2998.00,-0.0003
2997.00,-0.0003
2996.00,-0.0003
2995.00,-0.0003
2994.00,-0.0003
2993.00,-0.0003
2992.00,-0.0003
2991.00,-0.0003
2990.00,-0.0003
2989.00,-0.0003
2988.00,-0.0003
2987.00,-0.0003
2986.00,-0.0003
2985.00,-0.0003
2984.00,-0.0003
2983.00,-0.0003
2982.00,-0.0003
2981.00,-0.0003
2980.00,-0.0003
2979.00,-0.0003
2978.00,-0.0003
2977.00,-0.0003
2976.00,-0.0003
2975.00,-0.0003
2974.00,-0.0003
2973.00,-0.0003
2972.00,-0.0003
2971.00,-0.0003
2970.00,-0.0003
2969.00,-0.0003
2968.00,-0.0003
2967.00,-0.0003
2966.00,-0.0003
2965.00,-0.0003
2964.00,-0.0003
2963.00,-0.0003
2962.00,-0.0003
2961.00,-0.0003
2960.00,-0.0003
2959.00,-0.0003
2958.00,-0.0003
2957.00,-0.0003
2956.00,-0.0003
2955.00,-0.0003
2954.00,-0.0003
2953.00,-0.0003
2952.00,-0.0003
2951.00,-0.0003
2950.00,-0.0003
2949.00,-0.0003
2948.00,-0.0003
2947.00,-0.0003
2946.00,-0.0003
2945.00,-0.0003
2944.00,-0.0003
2943.00,-0.0003
2942.00,-0.0003
2941.00,-0.0003
2940.00,-0.0003
2939.00,-0.0003
2938.00,-0.0003
2937.00,-0.0003
2936.00,-0.0003
2935.00,-0.0003
2934.00,-0.0003
2933.00,-0.0003
2932.00,-0.0003
2931.00,-0.0003
2930.00,-0.0003
2929.00,-0.0003
2928.00,-0.0003
2927.00,-0.0003
2926.00,-0.0003
2925.00,-0.0003
2924.00,-0.0003
2923.00,-0.0003
2922.00,-0.0003
2921.00,-0.0003
2920.00,-0.0003
2919.00,-0.0003
2918.00,-0.0003
2917.00,-0.0003
2916.00,-0.0003
2915.00,-0.0003
2914.00,-0.0003
2913.00,-0.0003
2912.00,-0.0003
2911.00,-0.0003
2910.00,-0.0003
2909.00,-0.0003
2908.00,-0.0003
2907.00,-0.0003
2906.00,-0.0003
2905.00,-0.0003
2904.00,-0.0003
2903.00,-0.0003
2902.00,-0.0003
2901.00,-0.0003
2900.00,-0.0003
2899.00,-0.0003
2898.00,-0.0003
2897.00,-0.0003
2896.00,-0.0003
2895.00,-0.0003
2894.00,-0.0003
2893.00,-0.0003
2892.00,-0.0003
2891.00,-0.0003
2890.00,-0.0003
2889.00,-0.0003
2888.00,-0.0003
2887.00,-0.0003
2886.00,-0.0003
2885.00,-0.0003
2884.00,-0.0003
2883.00,-0.0003
2882.00,-0.0003
2881.00,-0.0003
2880.00,-0.0003
2879.00,-0.0003
2878.00,-0.0003
2877.00,-0.0003
2876.00,-0.0003
2875.00,-0.0002
2874.00,-0.0002
2873.00,-0.0002
2872.00,-0.0003
2871.00,-0.0003
2870.00,-0.0003
2869.00,-0.0003
2868.00,-0.0003
2867.00,-0.0003
2866.00,-0.0003
2865.00,-0.0003
2864.00,-0.0003
2863.00,-0.0003
2862.00,-0.0003
2861.00,-0.0003
2860.00,-0.0003
2859.00,-0.0003
2858.00,-0.0003
2857.00,-0.0003
2856.00,-0.0003
2855.00,-0.0003
2854.00,-0.0003
2853.00,-0.0003
2852.00,-0.0003
2851.00,-0.0003
2850.00,-0.0003
2849.00,-0.0003
2848.00,-0.0003
2847.00,-0.0003
2846.00,-0.0003
2845.00,-0.0003
2844.00,-0.0003
2843.00,-0.0003
2842.00,-0.0003
2841.00,-0.0003
2840.00,-0.0003
2839.00,-0.0003
2838.00,-0.0003
2837.00,-0.0003
2836.00,-0.0003
2835.00,-0.0003
2834.00,-0.0003
2833.00,-0.0003
2832.00,-0.0003
2831.00,-0.0003
2830.00,-0.0003
2829.00,-0.0003
2828.00,-0.0003
2827.00,-0.0003
2826.00,-0.0003
2825.00,-0.0003
2824.00,-0.0003
2823.00,-0.0003
2822.00,-0.0003
2821.00,-0.0003
2820.00,-0.0003
2819.00,-0.0003
2818.00,-0.0003
2817.00,-0.0003
2816.00,-0.0003
2815.00,-0.0003
2814.00,-0.0003
2813.00,-0.0003
2812.00,-0.0003
2811.00,-0.0003
2810.00,-0.0003
2809.00,-0.0003
2808.00,-0.0003
2807.00,-0.0003
2806.00,-0.0003
2805.00,-0.0003
2804.00,-0.0003
2803.00,-0.0003
2802.00,-0.0003
2801.00,-0.0003
2800.00,-0.0003
2799.00,-0.0003
2798.00,-0.0003
2797.00,-0.0003
2796.00,-0.0003
2795.00,-0.0003
2794.00,-0.0003
2793.00,-0.0003
2792.00,-0.0003
2791.00,-0.0003
2790.00,-0.0003
2789.00,-0.0003
2788.00,-0.0003
2787.00,-0.0003
2786.00,-0.0003
2785.00,-0.0003
2784.00,-0.0003
2783.00,-0.0003
2782.00,-0.0003
2781.00,-0.0003
2780.00,-0.0003
2779.00,-0.0003
2778.00,-0.0003
2777.00,-0.0003
2776.00,-0.0003
2775.00,-0.0003
2774.00,-0.0003
2773.00,-0.0003
2772.00,-0.0003
2771.00,-0.0003
2770.00,-0.0003
2769.00,-0.0003
2768.00,-0.0003
2767.00,-0.0003
2766.00,-0.0003
2765.00,-0.0003
2764.00,-0.0003
2763.00,-0.0003
2762.00,-0.0003
2761.00,-0.0003
2760.00,-0.0003
2759.00,-0.0003
2758.00,-0.0003
2757.00,-0.0003
2756.00,-0.0003
2755.00,-0.0003
2754.00,-0.0003
2753.00,-0.0003
2752.00,-0.0003
2751.00,-0.0003
2750.00,-0.0003
2749.00,-0.0003
2748.00,-0.0003
2747.00,-0.0003
2746.00,-0.0003
2745.00,-0.0003
2744.00,-0.0003
2743.00,-0.0003
2742.00,-0.0003
2741.00,-0.0003
2740.00,-0.0003
2739.00,-0.0003
2738.00,-0.0003
2737.00,-0.0003
2736.00,-0.0003
2735.00,-0.0003
2734.00,-0.0003
2733.00,-0.0003
2732.00,-0.0003
2731.00,-0.0003
2730.00,-0.0003
2729.00,-0.0003
2728.00,-0.0003
2727.00,-0.0003
2726.00,-0.0003
2725.00,-0.0003
2724.00,-0.0003
2723.00,-0.0003
2722.00,-0.0003
2721.00,-0.0003
2720.00,-0.0003
2719.00,-0.0003
2718.00,-0.0003
2717.00,-0.0003
2716.00,-0.0003
2715.00,-0.0003
2714.00,-0.0003
2713.00,-0.0003
2712.00,-0.0003
2711.00,-0.0003
2710.00,-0.0003
2709.00,-0.0003
2708.00,-0.0003
2707.00,-0.0003
2706.00,-0.0003
2705.00,-0.0003
2704.00,-0.0003
2703.00,-0.0003
2702.00,-0.0003
2701.00,-0.0003
2700.00,-0.0003
2699.00,-0.0003
2698.00,-0.0003
2697.00,-0.0003
2696.00,-0.0003
2695.00,-0.0003
2694.00,-0.0003
2693.00,-0.0003
2692.00,-0.0003
2691.00,-0.0003
2690.00,-0.0003
2689.00,-0.0003
2688.00,-0.0003
2687.00,-0.0003
2686.00,-0.0003
2685.00,-0.0003
2684.00,-0.0003
2683.00,-0.0003
2682.00,-0.0003
2681.00,-0.0003
2680.00,-0.0003
2679.00,-0.0003
2678.00,-0.0003
2677.00,-0.0003
2676.00,-0.0003
2675.00,-0.0003
2674.00,-0.0003
2673.00,-0.0003
2672.00,-0.0003
2671.00,-0.0003
2670.00,-0.0003
2669.00,-0.0003
2668.00,-0.0003
2667.00,-0.0003
2666.00,-0.0003
2665.00,-0.0003
2664.00,-0.0003
2663.00,-0.0003
2662.00,-0.0003
2661.00,-0.0003
2660.00,-0.0003
2659.00,-0.0003
2658.00,-0.0003
2657.00,-0.0003
2656.00,-0.0003
2655.00,-0.0003
2654.00,-0.0003
2653.00,-0.0003
2652.00,-0.0003
2651.00,-0.0003
2650.00,-0.0003
2649.00,-0.0003
2648.00,-0.0003
2647.00,-0.0003
2646.00,-0.0003
2645.00,-0.0003
2644.00,-0.0003
2643.00,-0.0003
2642.00,-0.0003
2641.00,-0.0003
2640.00,-0.0003
2639.00,-0.0003
2638.00,-0.0003
2637.00,-0.0003
2636.00,-0.0003
2635.00,-0.0003
2634.00,-0.0003
2633.00,-0.0003
2632.00,-0.0003
2631.00,-0.0003
2630.00,-0.0003
2629.00,-0.0003
2628.00,-0.0003
2627.00,-0.0003
2626.00,-0.0003
2625.00,-0.0003
2624.00,-0.0003
2623.00,-0.0003
2622.00,-0.0003
2621.00,-0.0003
2620.00,-0.0003
2619.00,-0.0003
2618.00,-0.0003
2617.00,-0.0003
2616.00,-0.0003
2615.00,-0.0003
2614.00,-0.0003
2613.00,-0.0003
2612.00,-0.0003
2611.00,-0.0003
2610.00,-0.0003
2609.00,-0.0003
2608.00,-0.0003
2607.00,-0.0003
2606.00,-0.0003
2605.00,-0.0003
2604.00,-0.0003
2603.00,-0.0003
2602.00,-0.0003
2601.00,-0.0003
2600.00,-0.0003
2599.00,-0.0003
2598.00,-0.0003
2597.00,-0.0003
2596.00,-0.0003
2595.00,-0.0003
2594.00,-0.0003
2593.00,-0.0003
2592.00,-0.0003
2591.00,-0.0003
2590.00,-0.0003
2589.00,-0.0003
2588.00,-0.0003
2587.00,-0.0003
2586.00,-0.0003
2585.00,-0.0003
2584.00,-0.0003
2583.00,-0.0003
2582.00,-0.0003
2581.00,-0.0003
2580.00,-0.0003
2579.00,-0.0003
2578.00,-0.0003
2577.00,-0.0003
2576.00,-0.0003
2575.00,-0.0003
2574.00,-0.0003
2573.00,-0.0003
2572.00,-0.0003
2571.00,-0.0003
2570.00,-0.0003
2569.00,-0.0003
2568.00,-0.0003
2567.00,-0.0003
2566.00,-0.0003
2565.00,-0.0003
2564.00,-0.0003
2563.00,-0.0003
2562.00,-0.0003
2561.00,-0.0003
2560.00,-0.0003
2559.00,-0.0003
2558.00,-0.0003
2557.00,-0.0003
2556.00,-0.0003
2555.00,-0.0003
2554.00,-0.0003
2553.00,-0.0003
2552.00,-0.0003
2551.00,-0.0003
2550.00,-0.0003
2549.00,-0.0003
2548.00,-0.0003
2547.00,-0.0003
2546.00,-0.0003
2545.00,-0.0003
2544.00,-0.0003
2543.00,-0.0003
2542.00,-0.0003
2541.00,-0.0003
2540.00,-0.0003
2539.00,-0.0003
2538.00,-0.0003
2537.00,-0.0003
2536.00,-0.0003
2535.00,-0.0003
2534.00,-0.0003
2533.00,-0.0003
2532.00,-0.0003
2531.00,-0.0003
2530.00,-0.0003
2529.00,-0.0003
2528.00,-0.0003
2527.00,-0.0003
2526.00,-0.0003
2525.00,-0.0003
2524.00,-0.0003
2523.00,-0.0003
2522.00,-0.0003
2521.00,-0.0003
2520.00,-0.0003
2519.00,-0.0003
2518.00,-0.0003
2517.00,-0.0003
2516.00,-0.0003
2515.00,-0.0003
2514.00,-0.0003
2513.00,-0.0003
2512.00,-0.0003
2511.00,-0.0003
2510.00,-0.0003
2509.00,-0.0003
2508.00,-0.0003
2507.00,-0.0003
2506.00,-0.0003
2505.00,-0.0003
2504.00,-0.0003
2503.00,-0.0003
2502.00,-0.0003
2501.00,-0.0003
2500.00,-0.0003
2499.00,-0.0003
2498.00,-0.0003
2497.00,-0.0003
2496.00,-0.0003
2495.00,-0.0003
2494.00,-0.0003
2493.00,-0.0003
2492.00,-0.0003
2491.00,-0.0003
2490.00,-0.0003
2489.00,-0.0003
2488.00,-0.0003
2487.00,-0.0003
2486.00,-0.0003
2485.00,-0.0003
2484.00,-0.0003
2483.00,-0.0003
2482.00,-0.0003
2481.00,-0.0003
2480.00,-0.0003
2479.00,-0.0003
2478.00,-0.0003
2477.00,-0.0003
2476.00,-0.0003
2475.00,-0.0003
2474.00,-0.0003
2473.00,-0.0003
2472.00,-0.0003
2471.00,-0.0003
2470.00,-0.0003
2469.00,-0.0003
2468.00,-0.0003
2467.00,-0.0003
2466.00,-0.0003
2465.00,-0.0003
2464.00,-0.0003
2463.00,-0.0003
2462.00,-0.0003
2461.00,-0.0003
2460.00,-0.0003
2459.00,-0.0003
2458.00,-0.0003
2457.00,-0.0003
2456.00,-0.0003
2455.00,-0.0003
2454.00,-0.0003
2453.00,-0.0003
2452.00,-0.0003
2451.00,-0.0003
2450.00,-0.0003
2449.00,-0.0003
2448.00,-0.0003
2447.00,-0.0003
2446.00,-0.0003
2445.00,-0.0003
2444.00,-0.0003
2443.00,-0.0003
2442.00,-0.0003
2441.00,-0.0003
2440.00,-0.0003
2439.00,-0.0003
2438.00,-0.0003
2437.00,-0.0004
2436.00,-0.0003
2435.00,-0.0003
2434.00,-0.0003
2433.00,-0.0003
2432.00,-0.0003
2431.00,-0.0003
2430.00,-0.0003
2429.00,-0.0003
2428.00,-0.0003
2427.00,-0.0003
2426.00,-0.0003
2425.00,-0.0003
2424.00,-0.0003
2423.00,-0.0003
2422.00,-0.0003
2421.00,-0.0003
2420.00,-0.0003
2419.00,-0.0003
2418.00,-0.0003
2417.00,-0.0003
2416.00,-0.0003
2415.00,-0.0003
2414.00,-0.0003
2413.00,-0.0003
2412.00,-0.0003
2411.00,-0.0003
2410.00,-0.0003
2409.00,-0.0003
2408.00,-0.0003
2407.00,-0.0003
2406.00,-0.0003
2405.00,-0.0003
2404.00,-0.0003
2403.00,-0.0003
2402.00,-0.0003
2401.00,-0.0003
2400.00,-0.0003
2399.00,-0.0003
2398.00,-0.0003
2397.00,-0.0003
2396.00,-0.0003
2395.00,-0.0003
2394.00,-0.0003
2393.00,-0.0003
2392.00,-0.0003
2391.00,-0.0003
2390.00,-0.0003
2389.00,-0.0003
2388.00,-0.0003
2387.00,-0.0002
2386.00,-0.0002
2385.00,-0.0002
2384.00,-0.0002
2383.00,-0.0002
2382.00,-0.0002
2381.00,-0.0002
2380.00,-0.0003
2379.00,-0.0003
2378.00,-0.0003
2377.00,-0.0003
2376.00,-0.0003
2375.00,-0.0003
2374.00,-0.0003
2373.00,-0.0003
2372.00,-0.0003
2371.00,-0.0003
2370.00,-0.0002
2369.00,-0.0002
2368.00,-0.0002
2367.00,-0.0002
2366.00,-0.0002
2365.00,-0.0002
2364.00,-0.0002
2363.00,-0.0002
2362.00,-0.0002
2361.00,-0.0001
2360.00,-0.0001
2359.00,-0.0001
2358.00,-0.0001
2357.00,-0.0001
2356.00,-0.0000
2355.00,-0.0000
2354.00,-0.0001
2353.00,-0.0001
2352.00,-0.0001
2351.00,-0.0001
2350.00,-0.0001
2349.00,-0.0001
2348.00,-0.0000
2347.00,-0.0000
2346.00,-0.0001
2345.00,-0.0001
2344.00,-0.0001
2343.00,-0.0001
2342.00,-0.0000
2341.00,-0.0000
2340.00,-0.0000
2339.00,-0.0000
2338.00,-0.0001
2337.00,-0.0001
2336.00,-0.0001
2335.00,-0.0000
2334.00,-0.0000
2333.00,-0.0000
2332.00,-0.0001
2331.00,-0.0001
2330.00,-0.0001
2329.00,-0.0001
2328.00,-0.0001
2327.00,-0.0000
2326.00,-0.0000
2325.00,-0.0000
2324.00,-0.0000
2323.00,-0.0000
2322.00,-0.0001
2321.00,-0.0001
2320.00,-0.0000
2319.00,-0.0000
2318.00,-0.0000
2317.00,-0.0001
2316.00,-0.0001
2315.00,-0.0001
2314.00,-0.0001
2313.00,-0.0001
2312.00,-0.0001
2311.00,-0.0001
2310.00,-0.0001
2309.00,-0.0001
2308.00,-0.0001
2307.00,-0.0001
2306.00,-0.0002
2305.00,-0.0002
2304.00,-0.0002
2303.00,-0.0002
2302.00,-0.0002
2301.00,-0.0002
2300.00,-0.0002
2299.00,-0.0002
2298.00,-0.0002
2297.00,-0.0002
2296.00,-0.0002
2295.00,-0.0002
2294.00,-0.0002
2293.00,-0.0002
2292.00,-0.0003
2291.00,-0.0003
2290.00,-0.0003
2289.00,-0.0003
2288.00,-0.0003
2287.00,-0.0003
2286.00,-0.0003
2285.00,-0.0003
2284.00,-0.0003
2283.00,-0.0003
2282.00,-0.0003
2281.00,-0.0003
2280.00,-0.0003
2279.00,-0.0003
2278.00,-0.0003
2277.00,-0.0003
2276.00,-0.0003
2275.00,-0.0003
2274.00,-0.0003
2273.00,-0.0003
2272.00,-0.0003
2271.00,-0.0003
2270.00,-0.0003
2269.00,-0.0003
2268.00,-0.0003
2267.00,-0.0003
2266.00,-0.0003
2265.00,-0.0003
2264.00,-0.0003
2263.00,-0.0003
2262.00,-0.0003
2261.00,-0.0003
2260.00,-0.0003
2259.00,-0.0003
2258.00,-0.0003
2257.00,-0.0003
2256.00,-0.0003
2255.00,-0.0003
2254.00,-0.0003
2253.00,-0.0003
2252.00,-0.0003
2251.00,-0.0003
2250.00,-0.0003
2249.00,-0.0003
2248.00,-0.0003
2247.00,-0.0003
2246.00,-0.0003
2245.00,-0.0003
2244.00,-0.0003
2243.00,-0.0003
2242.00,-0.0003
2241.00,-0.0003
2240.00,-0.0003
2239.00,-0.0003
2238.00,-0.0003
2237.00,-0.0003
2236.00,-0.0003
2235.00,-0.0003
2234.00,-0.0003
2233.00,-0.0003
2232.00,-0.0003
2231.00,-0.0003
2230.00,-0.0003
2229.00,-0.0003
2228.00,-0.0003
2227.00,-0.0003
2226.00,-0.0003
2225.00,-0.0003
2224.00,-0.0003
2223.00,-0.0003
2222.00,-0.0003
2221.00,-0.0003
2220.00,-0.0003
2219.00,-0.0003
2218.00,-0.0003
2217.00,-0.0003
2216.00,-0.0003
2215.00,-0.0003
2214.00,-0.0003
2213.00,-0.0003
2212.00,-0.0003
2211.00,-0.0003
2210.00,-0.0003
2209.00,-0.0003
2208.00,-0.0003
2207.00,-0.0003
2206.00,-0.0003
2205.00,-0.0003
2204.00,-0.0003
2203.00,-0.0003
2202.00,-0.0003
2201.00,-0.0003
2200.00,-0.0003
2199.00,-0.0003
2198.00,-0.0003
2197.00,-0.0003
2196.00,-0.0003
2195.00,-0.0003
2194.00,-0.0003
2193.00,-0.0003
2192.00,-0.0003
2191.00,-0.0003
2190.00,-0.0003
2189.00,-0.0003
2188.00,-0.0003
2187.00,-0.0003
2186.00,-0.0003
2185.00,-0.0003
2184.00,-0.0003
2183.00,-0.0003
2182.00,-0.0003
2181.00,-0.0004
2180.00,-0.0003
2179.00,-0.0003
2178.00,-0.0003
2177.00,-0.0003
2176.00,-0.0003
2175.00,-0.0003
2174.00,-0.0003
2173.00,-0.0003
2172.00,-0.0003
2171.00,-0.0003
2170.00,-0.0003
2169.00,-0.0003
2168.00,-0.0003
2167.00,-0.0003
2166.00,-0.0003
2165.00,-0.0003
2164.00,-0.0003
2163.00,-0.0003
2162.00,-0.0003
2161.00,-0.0003
2160.00,-0.0003
2159.00,-0.0003
2158.00,-0.0003
2157.00,-0.0003
2156.00,-0.0003
2155.00,-0.0003
2154.00,-0.0003
2153.00,-0.0003
2152.00,-0.0003
2151.00,-0.0003
2150.00,-0.0003
2149.00,-0.0003
2148.00,-0.0003
2147.00,-0.0003
2146.00,-0.0003
2145.00,-0.0003
2144.00,-0.0003
2143.00,-0.0003
2142.00,-0.0003
2141.00,-0.0003
2140.00,-0.0003
2139.00,-0.0003
2138.00,-0.0003
2137.00,-0.0003
2136.00,-0.0003
2135.00,-0.0003
2134.00,-0.0003
2133.00,-0.0003
2132.00,-0.0003
2131.00,-0.0003
2130.00,-0.0003
2129.00,-0.0003
2128.00,-0.0003
2127.00,-0.0003
2126.00,-0.0003
2125.00,-0.0003
2124.00,-0.0003
2123.00,-0.0003
2122.00,-0.0003
2121.00,-0.0003
2120.00,-0.0003
2119.00,-0.0003
2118.00,-0.0003
2117.00,-0.0003
2116.00,-0.0003
2115.00,-0.0003
2114.00,-0.0003
2113.00,-0.0003
2112.00,-0.0003
2111.00,-0.0003
2110.00,-0.0003
2109.00,-0.0003
2108.00,-0.0003
2107.00,-0.0003
2106.00,-0.0003
2105.00,-0.0003
2104.00,-0.0003
2103.00,-0.0003
2102.00,-0.0003
2101.00,-0.0003
2100.00,-0.0003
2099.00,-0.0003
2098.00,-0.0003
2097.00,-0.0003
2096.00,-0.0003
2095.00,-0.0003
2094.00,-0.0003
2093.00,-0.0003
2092.00,-0.0003
2091.00,-0.0003
2090.00,-0.0003
2089.00,-0.0003
2088.00,-0.0003
2087.00,-0.0003
2086.00,-0.0003
2085.00,-0.0003
2084.00,-0.0003
2083.00,-0.0003
2082.00,-0.0003
2081.00,-0.0003
2080.00,-0.0003
2079.00,-0.0003
2078.00,-0.0003
2077.00,-0.0003
2076.00,-0.0003
2075.00,-0.0003
2074.00,-0.0003
2073.00,-0.0003
2072.00,-0.0003
2071.00,-0.0003
2070.00,-0.0003
2069.00,-0.0003
2068.00,-0.0003
2067.00,-0.0003
2066.00,-0.0003
2065.00,-0.0003
2064.00,-0.0003
2063.00,-0.0003
2062.00,-0.0003
2061.00,-0.0003
2060.00,-0.0003
2059.00,-0.0003
2058.00,-0.0003
2057.00,-0.0003
2056.00,-0.0003
2055.00,-0.0003
2054.00,-0.0003
2053.00,-0.0003
2052.00,-0.0003
2051.00,-0.0003
2050.00,-0.0003
2049.00,-0.0003
2048.00,-0.0003
2047.00,-0.0003
2046.00,-0.0003
2045.00,-0.0003
2044.00,-0.0003
2043.00,-0.0003
2042.00,-0.0003
2041.00,-0.0003
2040.00,-0.0004
2039.00,-0.0004
2038.00,-0.0004
2037.00,-0.0004
2036.00,-0.0004
2035.00,-0.0004
2034.00,-0.0004
2033.00,-0.0003
2032.00,-0.0003
2031.00,-0.0003
2030.00,-0.0003
2029.00,-0.0003
2028.00,-0.0003
2027.00,-0.0003
2026.00,-0.0003
2025.00,-0.0003
2024.00,-0.0003
2023.00,-0.0003
2022.00,-0.0003
2021.00,-0.0003
2020.00,-0.0003
2019.00,-0.0003
2018.00,-0.0003
2017.00,-0.0003
2016.00,-0.0003
2015.00,-0.0003
2014.00,-0.0003
2013.00,-0.0003
2012.00,-0.0003
2011.00,-0.0003
2010.00,-0.0003
2009.00,-0.0003
2008.00,-0.0003
2007.00,-0.0003
2006.00,-0.0003
2005.00,-0.0003
2004.00,-0.0003
2003.00,-0.0003
2002.00,-0.0003
2001.00,-0.0003
2000.00,-0.0003
1999.00,-0.0003
1998.00,-0.0003
1997.00,-0.0003
1996.00,-0.0003
1995.00,-0.0003
1994.00,-0.0003
1993.00,-0.0003
1992.00,-0.0003
1991.00,-0.0003
1990.00,-0.0003
1989.00,-0.0003
1988.00,-0.0003
1987.00,-0.0003
1986.00,-0.0003
1985.00,-0.0003
1984.00,-0.0003
1983.00,-0.0003
1982.00,-0.0003
1981.00,-0.0003
1980.00,-0.0003
1979.00,-0.0003
1978.00,-0.0003
1977.00,-0.0003
1976.00,-0.0003
1975.00,-0.0003
1974.00,-0.0003
1973.00,-0.0003
1972.00,-0.0003
1971.00,-0.0003
1970.00,-0.0003
1969.00,-0.0003
1968.00,-0.0003
1967.00,-0.0003
1966.00,-0.0003
1965.00,-0.0003
1964.00,-0.0003
1963.00,-0.0003
1962.00,-0.0003
1961.00,-0.0004
1960.00,-0.0004
1959.00,-0.0004
1958.00,-0.0003
1957.00,-0.0003
1956.00,-0.0003
1955.00,-0.0003
1954.00,-0.0003
1953.00,-0.0003
1952.00,-0.0003
1951.00,-0.0003
1950.00,-0.0003
1949.00,-0.0003
1948.00,-0.0003
1947.00,-0.0003
1946.00,-0.0003
1945.00,-0.0003
1944.00,-0.0003
1943.00,-0.0003
1942.00,-0.0003
1941.00,-0.0003
1940.00,-0.0003
1939.00,-0.0004
1938.00,-0.0003
1937.00,-0.0003
1936.00,-0.0003
1935.00,-0.0003
1934.00,-0.0003
1933.00,-0.0003
1932.00,-0.0003
1931.00,-0.0003
1930.00,-0.0004
1929.00,-0.0003
1928.00,-0.0003
1927.00,-0.0003
1926.00,-0.0003
1925.00,-0.0003
1924.00,-0.0003
1923.00,-0.0003
1922.00,-0.0003
1921.00,-0.0003
1920.00,-0.0003
1919.00,-0.0003
1918.00,-0.0003
1917.00,-0.0003
1916.00,-0.0003
1915.00,-0.0003
1914.00,-0.0003
1913.00,-0.0003
1912.00,-0.0003
1911.00,-0.0003
1910.00,-0.0003
1909.00,-0.0003
1908.00,-0.0003
1907.00,-0.0003
1906.00,-0.0003
1905.00,-0.0003
1904.00,-0.0003
1903.00,-0.0003
1902.00,-0.0004
1901.00,-0.0004
1900.00,-0.0004
1899.00,-0.0004
1898.00,-0.0004
1897.00,-0.0004
1896.00,-0.0004
1895.00,-0.0003
1894.00,-0.0003
1893.00,-0.0003
1892.00,-0.0004
1891.00,-0.0004
1890.00,-0.0004
1889.00,-0.0004
1888.00,-0.0004
1887.00,-0.0004
1886.00,-0.0003
1885.00,-0.0003
1884.00,-0.0003
1883.00,-0.0003
1882.00,-0.0003
1881.00,-0.0003
1880.00,-0.0003
1879.00,-0.0003
1878.00,-0.0003
1877.00,-0.0003
1876.00,-0.0003
1875.00,-0.0003
1874.00,-0.0003
1873.00,-0.0003
1872.00,-0.0003
1871.00,-0.0003
1870.00,-0.0003
1869.00,-0.0003
1868.00,-0.0003
1867.00,-0.0003
1866.00,-0.0003
1865.00,-0.0003
1864.00,-0.0003
1863.00,-0.0003
1862.00,-0.0003
1861.00,-0.0003
1860.00,-0.0003
1859.00,-0.0003
1858.00,-0.0003
1857.00,-0.0003
1856.00,-0.0003
1855.00,-0.0003
1854.00,-0.0003
1853.00,-0.0003
1852.00,-0.0003
1851.00,-0.0003
1850.00,-0.0003
1849.00,-0.0003
1848.00,-0.0003
1847.00,-0.0003
1846.00,-0.0003
1845.00,-0.0003
1844.00,-0.0003
1843.00,-0.0003
1842.00,-0.0003
1841.00,-0.0003
1840.00,-0.0003
1839.00,-0.0003
1838.00,-0.0003
1837.00,-0.0003
1836.00,-0.0003
1835.00,-0.0003
1834.00,-0.0003
1833.00,-0.0003
1832.00,-0.0003
1831.00,-0.0003
1830.00,-0.0003
1829.00,-0.0003
1828.00,-0.0003
1827.00,-0.0003
1826.00,-0.0003
1825.00,-0.0003
1824.00,-0.0003
1823.00,-0.0003
1822.00,-0.0003
1821.00,-0.0003
1820.00,-0.0003
1819.00,-0.0003
1818.00,-0.0003
1817.00,-0.0003
1816.00,-0.0003
1815.00,-0.0003
1814.00,-0.0004
1813.00,-0.0004
1812.00,-0.0004
1811.00,-0.0004
1810.00,-0.0003
1809.00,-0.0003
1808.00,-0.0003
1807.00,-0.0003
1806.00,-0.0003
1805.00,-0.0003
1804.00,-0.0003
1803.00,-0.0003
1802.00,-0.0003
1801.00,-0.0004
1800.00,-0.0004
1799.00,-0.0004
1798.00,-0.0004
1797.00,-0.0004
1796.00,-0.0004
1795.00,-0.0004
1794.00,-0.0004
1793.00,-0.0004
1792.00,-0.0004
1791.00,-0.0004
1790.00,-0.0003
1789.00,-0.0003
1788.00,-0.0004
1787.00,-0.0004
1786.00,-0.0004
1785.00,-0.0004
1784.00,-0.0004
1783.00,-0.0004
1782.00,-0.0003
1781.00,-0.0003
1780.00,-0.0003
1779.00,-0.0003
1778.00,-0.0003
1777.00,-0.0003
1776.00,-0.0003
1775.00,-0.0003
1774.00,-0.0003
1773.00,-0.0003
1772.00,-0.0003
1771.00,-0.0003
1770.00,-0.0003
1769.00,-0.0003
1768.00,-0.0003
1767.00,-0.0003
1766.00,-0.0003
1765.00,-0.0003
1764.00,-0.0003
1763.00,-0.0003
1762.00,-0.0003
1761.00,-0.0003
1760.00,-0.0003
1759.00,-0.0003
1758.00,-0.0003
1757.00,-0.0003
1756.00,-0.0003
1755.00,-0.0003
1754.00,-0.0003
1753.00,-0.0003
1752.00,-0.0003
1751.00,-0.0003
1750.00,-0.0003
1749.00,-0.0004
1748.00,-0.0004
1747.00,-0.0003
1746.00,-0.0003
1745.00,-0.0003
1744.00,-0.0003
1743.00,-0.0003
1742.00,-0.0003
1741.00,-0.0004
1740.00,-0.0004
1739.00,-0.0003
1738.00,-0.0003
1737.00,-0.0003
1736.00,-0.0003
1735.00,-0.0003
1734.00,-0.0003
1733.00,-0.0004
1732.00,-0.0004
1731.00,-0.0004
1730.00,-0.0004
1729.00,-0.0003
1728.00,-0.0003
1727.00,-0.0003
1726.00,-0.0003
1725.00,-0.0003
1724.00,-0.0004
1723.00,-0.0004
1722.00,-0.0004
1721.00,-0.0004
1720.00,-0.0004
1719.00,-0.0004
1718.00,-0.0004
1717.00,-0.0004
1716.00,-0.0004
1715.00,-0.0004
1714.00,-0.0004
1713.00,-0.0004
1712.00,-0.0004
1711.00,-0.0004
1710.00,-0.0004
1709.00,-0.0004
1708.00,-0.0004
1707.00,-0.0004
1706.00,-0.0003
1705.00,-0.0004
1704.00,-0.0004
1703.00,-0.0004
1702.00,-0.0004
1701.00,-0.0004
1700.00,-0.0003
1699.00,-0.0003
1698.00,-0.0004
1697.00,-0.0004
1696.00,-0.0004
1695.00,-0.0004
1694.00,-0.0004
1693.00,-0.0004
1692.00,-0.0004
1691.00,-0.0004
1690.00,-0.0004
1689.00,-0.0004
1688.00,-0.0004
1687.00,-0.0004
1686.00,-0.0004
1685.00,-0.0004
1684.00,-0.0004
1683.00,-0.0004
1682.00,-0.0004
1681.00,-0.0004
1680.00,-0.0004
1679.00,-0.0004
1678.00,-0.0004
1677.00,-0.0004
1676.00,-0.0004
1675.00,-0.0004
1674.00,-0.0004
1673.00,-0.0004
1672.00,-0.0004
1671.00,-0.0004
1670.00,-0.0004
1669.00,-0.0004
1668.00,-0.0004
1667.00,-0.0004
1666.00,-0.0004
1665.00,-0.0004
1664.00,-0.0004
1663.00,-0.0004
1662.00,-0.0004
1661.00,-0.0004
1660.00,-0.0004
1659.00,-0.0004
1658.00,-0.0004
1657.00,-0.0004
1656.00,-0.0004
1655.00,-0.0004
1654.00,-0.0004
1653.00,-0.0004
1652.00,-0.0005
1651.00,-0.0005
1650.00,-0.0005
1649.00,-0.0005
1648.00,-0.0005
1647.00,-0.0005
1646.00,-0.0005
1645.00,-0.0005
1644.00,-0.0005
1643.00,-0.0005
1642.00,-0.0004
1641.00,-0.0004
1640.00,-0.0004
1639.00,-0.0004
1638.00,-0.0005
1637.00,-0.0005
1636.00,-0.0005
1635.00,-0.0005
1634.00,-0.0005
1633.00,-0.0005
1632.00,-0.0005
1631.00,-0.0005
1630.00,-0.0005
1629.00,-0.0004
1628.00,-0.0004
1627.00,-0.0004
1626.00,-0.0004
1625.00,-0.0004
1624.00,-0.0004
1623.00,-0.0004
1622.00,-0.0004
1621.00,-0.0004
1620.00,-0.0004
1619.00,-0.0004
1618.00,-0.0004
1617.00,-0.0004
1616.00,-0.0004
1615.00,-0.0004
1614.00,-0.0004
1613.00,-0.0004
1612.00,-0.0004
1611.00,-0.0004
1610.00,-0.0004
1609.00,-0.0004
1608.00,-0.0004
1607.00,-0.0004
1606.00,-0.0004
1605.00,-0.0004
1604.00,-0.0004
1603.00,-0.0004
1602.00,-0.0004
1601.00,-0.0004
1600.00,-0.0004
1599.00,-0.0004
1598.00,-0.0004
1597.00,-0.0004
1596.00,-0.0004
1595.00,-0.0004
1594.00,-0.0004
1593.00,-0.0004
1592.00,-0.0004
1591.00,-0.0004
1590.00,-0.0004
1589.00,-0.0004
1588.00,-0.0004
1587.00,-0.0004
1586.00,-0.0004
1585.00,-0.0004
1584.00,-0.0004
1583.00,-0.0004
1582.00,-0.0004
1581.00,-0.0004
1580.00,-0.0004
1579.00,-0.0004
1578.00,-0.0004
1577.00,-0.0004
1576.00,-0.0004
1575.00,-0.0004
1574.00,-0.0004
1573.00,-0.0004
1572.00,-0.0004
1571.00,-0.0004
1570.00,-0.0004
1569.00,-0.0004
1568.00,-0.0004
1567.00,-0.0004
1566.00,-0.0004
1565.00,-0.0004
1564.00,-0.0004
1563.00,-0.0004
1562.00,-0.0004
1561.00,-0.0004
1560.00,-0.0004
1559.00,-0.0004
1558.00,-0.0004
1557.00,-0.0004
1556.00,-0.0004
1555.00,-0.0004
1554.00,-0.0004
1553.00,-0.0004
1552.00,-0.0004
1551.00,-0.0004
1550.00,-0.0003
1549.00,-0.0003
1548.00,-0.0003
1547.00,-0.0003
1546.00,-0.0003
1545.00,-0.0003
1544.00,-0.0003
1543.00,-0.0003
1542.00,-0.0004
1541.00,-0.0004
1540.00,-0.0004
1539.00,-0.0004
1538.00,-0.0004
1537.00,-0.0004
1536.00,-0.0004
1535.00,-0.0004
1534.00,-0.0004
1533.00,-0.0004
1532.00,-0.0004
1531.00,-0.0004
1530.00,-0.0004
1529.00,-0.0004
1528.00,-0.0004
1527.00,-0.0004
1526.00,-0.0004
1525.00,-0.0004
1524.00,-0.0004
1523.00,-0.0004
1522.00,-0.0004
1521.00,-0.0004
1520.00,-0.0004
1519.00,-0.0004
1518.00,-0.0004
1517.00,-0.0004
1516.00,-0.0004
1515.00,-0.0004
1514.00,-0.0004
1513.00,-0.0004
1512.00,-0.0003
1511.00,-0.0003
1510.00,-0.0003
1509.00,-0.0003
1508.00,-0.0003
1507.00,-0.0004
1506.00,-0.0004
1505.00,-0.0004
1504.00,-0.0004
1503.00,-0.0004
1502.00,-0.0004
1501.00,-0.0004
1500.00,-0.0004
1499.00,-0.0004
1498.00,-0.0004
1497.00,-0.0004
1496.00,-0.0003
1495.00,-0.0003
1494.00,-0.0003
1493.00,-0.0003
1492.00,-0.0004
1491.00,-0.0004
1490.00,-0.0004
1489.00,-0.0004
1488.00,-0.0004
1487.00,-0.0004
1486.00,-0.0004
1485.00,-0.0004
1484.00,-0.0004
1483.00,-0.0004
1482.00,-0.0004
1481.00,-0.0004
1480.00,-0.0004
1479.00,-0.0004
1478.00,-0.0004
1477.00,-0.0003
1476.00,-0.0004
1475.00,-0.0004
1474.00,-0.0004
1473.00,-0.0004
1472.00,-0.0004
1471.00,-0.0004
1470.00,-0.0004
1469.00,-0.0004
1468.00,-0.0004
1467.00,-0.0004
1466.00,-0.0004
1465.00,-0.0004
1464.00,-0.0004
1463.00,-0.0004
1462.00,-0.0004
1461.00,-0.0003
1460.00,-0.0003
1459.00,-0.0003
1458.00,-0.0003
1457.00,-0.0004
1456.00,-0.0004
1455.00,-0.0004
1454.00,-0.0004
1453.00,-0.0004
1452.00,-0.0004
1451.00,-0.0004
1450.00,-0.0004
1449.00,-0.0003
1448.00,-0.0004
1447.00,-0.0004
1446.00,-0.0004
1445.00,-0.0004
1444.00,-0.0004
1443.00,-0.0003
1442.00,-0.0003
1441.00,-0.0003
1440.00,-0.0003
1439.00,-0.0004
1438.00,-0.0004
1437.00,-0.0004
1436.00,-0.0004
1435.00,-0.0004
1434.00,-0.0004
1433.00,-0.0004
1432.00,-0.0004
1431.00,-0.0004
1430.00,-0.0004
1429.00,-0.0004
1428.00,-0.0004
1427.00,-0.0004
1426.00,-0.0004
1425.00,-0.0003
1424.00,-0.0004
1423.00,-0.0004
1422.00,-0.0004
1421.00,-0.0004
1420.00,-0.0004
1419.00,-0.0004
1418.00,-0.0004
1417.00,-0.0004
1416.00,-0.0004
1415.00,-0.0004
1414.00,-0.0003
1413.00,-0.0003
1412.00,-0.0004
1411.00,-0.0004
1410.00,-0.0004
1409.00,-0.0004
1408.00,-0.0004
1407.00,-0.0004
1406.00,-0.0003
1405.00,-0.0003
1404.00,-0.0004
1403.00,-0.0004
1402.00,-0.0004
1401.00,-0.0004
1400.00,-0.0004
1399.00,-0.0004
1398.00,-0.0004
1397.00,-0.0004
1396.00,-0.0004
1395.00,-0.0004
1394.00,-0.0004
1393.00,-0.0004
1392.00,-0.0004
1391.00,-0.0004
1390.00,-0.0003
1389.00,-0.0003
1388.00,-0.0003
1387.00,-0.0003
1386.00,-0.0004
1385.00,-0.0004
1384.00,-0.0004
1383.00,-0.0004
1382.00,-0.0004
1381.00,-0.0004
1380.00,-0.0004
1379.00,-0.0004
1378.00,-0.0004
1377.00,-0.0004
1376.00,-0.0003
1375.00,-0.0003
1374.00,-0.0003
1373.00,-0.0004
1372.00,-0.0004
1371.00,-0.0004
1370.00,-0.0004
1369.00,-0.0003
1368.00,-0.0003
1367.00,-0.0003
1366.00,-0.0004
1365.00,-0.0004
1364.00,-0.0004
1363.00,-0.0004
1362.00,-0.0004
1361.00,-0.0004
1360.00,-0.0004
1359.00,-0.0004
1358.00,-0.0004
1357.00,-0.0004
1356.00,-0.0004
1355.00,-0.0004
1354.00,-0.0004
1353.00,-0.0004
1352.00,-0.0004
1351.00,-0.0004
1350.00,-0.0004
1349.00,-0.0004
1348.00,-0.0004
1347.00,-0.0004
1346.00,-0.0004
1345.00,-0.0004
1344.00,-0.0004
1343.00,-0.0004
1342.00,-0.0004
1341.00,-0.0004
1340.00,-0.0004
1339.00,-0.0004
1338.00,-0.0004
1337.00,-0.0004
1336.00,-0.0004
1335.00,-0.0004
1334.00,-0.0004
1333.00,-0.0004
1332.00,-0.0004
1331.00,-0.0004
1330.00,-0.0004
1329.00,-0.0004
1328.00,-0.0004
1327.00,-0.0004
1326.00,-0.0003
1325.00,-0.0004
1324.00,-0.0004
1323.00,-0.0004
1322.00,-0.0004
1321.00,-0.0004
1320.00,-0.0004
1319.00,-0.0004
1318.00,-0.0004
1317.00,-0.0004
1316.00,-0.0004
1315.00,-0.0004
1314.00,-0.0004
1313.00,-0.0004
1312.00,-0.0004
1311.00,-0.0004
1310.00,-0.0004
1309.00,-0.0004
1308.00,-0.0004
1307.00,-0.0004
1306.00,-0.0004
1305.00,-0.0004
1304.00,-0.0004
1303.00,-0.0004
1302.00,-0.0004
1301.00,-0.0004
1300.00,-0.0004
1299.00,-0.0004
1298.00,-0.0004
1297.00,-0.0004
1296.00,-0.0004
1295.00,-0.0004
1294.00,-0.0004
1293.00,-0.0004
1292.00,-0.0004
1291.00,-0.0004
1290.00,-0.0004
1289.00,-0.0004
1288.00,-0.0004
1287.00,-0.0004
1286.00,-0.0004
1285.00,-0.0004
1284.00,-0.0004
1283.00,-0.0004
1282.00,-0.0004
1281.00,-0.0004
1280.00,-0.0004
1279.00,-0.0004
1278.00,-0.0004
1277.00,-0.0004
1276.00,-0.0004
1275.00,-0.0004
1274.00,-0.0004
1273.00,-0.0004
1272.00,-0.0004
1271.00,-0.0004
1270.00,-0.0004
1269.00,-0.0004
1268.00,-0.0004
1267.00,-0.0004
1266.00,-0.0004
1265.00,-0.0004
1264.00,-0.0004
1263.00,-0.0004
1262.00,-0.0004
1261.00,-0.0004
1260.00,-0.0004
1259.00,-0.0004
1258.00,-0.0004
1257.00,-0.0004
1256.00,-0.0004
1255.00,-0.0004
1254.00,-0.0004
1253.00,-0.0003
1252.00,-0.0003
1251.00,-0.0004
1250.00,-0.0004
1249.00,-0.0003
1248.00,-0.0003
1247.00,-0.0003
1246.00,-0.0003
1245.00,-0.0003
1244.00,-0.0003
1243.00,-0.0004
1242.00,-0.0004
1241.00,-0.0004
1240.00,-0.0004
1239.00,-0.0004
1238.00,-0.0004
1237.00,-0.0004
1236.00,-0.0004
1235.00,-0.0004
1234.00,-0.0004
1233.00,-0.0004
1232.00,-0.0004
1231.00,-0.0003
1230.00,-0.0003
1229.00,-0.0004
1228.00,-0.0004
1227.00,-0.0004
1226.00,-0.0004
1225.00,-0.0004
1224.00,-0.0004
1223.00,-0.0003
1222.00,-0.0003
1221.00,-0.0003
1220.00,-0.0003
1219.00,-0.0003
1218.00,-0.0003
1217.00,-0.0004
1216.00,-0.0004
1215.00,-0.0004
1214.00,-0.0004
1213.00,-0.0003
1212.00,-0.0003
1211.00,-0.0003
1210.00,-0.0004
1209.00,-0.0004
1208.00,-0.0004
1207.00,-0.0004
1206.00,-0.0004
1205.00,-0.0004
1204.00,-0.0004
1203.00,-0.0004
1202.00,-0.0003
1201.00,-0.0003
1200.00,-0.0003
1199.00,-0.0004
1198.00,-0.0004
1197.00,-0.0004
1196.00,-0.0004
1195.00,-0.0004
1194.00,-0.0003
1193.00,-0.0003
1192.00,-0.0003
1191.00,-0.0003
1190.00,-0.0003
1189.00,-0.0003
1188.00,-0.0003
1187.00,-0.0004
1186.00,-0.0004
1185.00,-0.0004
1184.00,-0.0004
1183.00,-0.0004
1182.00,-0.0004
1181.00,-0.0004
1180.00,-0.0004
1179.00,-0.0004
1178.00,-0.0004
1177.00,-0.0004
1176.00,-0.0004
1175.00,-0.0004
1174.00,-0.0004
1173.00,-0.0004
1172.00,-0.0003
1171.00,-0.0003
1170.00,-0.0003
1169.00,-0.0003
1168.00,-0.0003
1167.00,-0.0003
1166.00,-0.0003
1165.00,-0.0004
1164.00,-0.0004
1163.00,-0.0004
1162.00,-0.0004
1161.00,-0.0004
1160.00,-0.0004
1159.00,-0.0003
1158.00,-0.0003
1157.00,-0.0004
1156.00,-0.0004
1155.00,-0.0004
1154.00,-0.0004
1153.00,-0.0004
1152.00,-0.0003
1151.00,-0.0003
1150.00,-0.0003
1149.00,-0.0003
1148.00,-0.0004
1147.00,-0.0004
1146.00,-0.0004
1145.00,-0.0004
1144.00,-0.0004
1143.00,-0.0004
1142.00,-0.0004
1141.00,-0.0003
1140.00,-0.0003
1139.00,-0.0003
1138.00,-0.0004
1137.00,-0.0004
1136.00,-0.0004
1135.00,-0.0004
1134.00,-0.0004
1133.00,-0.0004
1132.00,-0.0004
1131.00,-0.0004
1130.00,-0.0004
1129.00,-0.0004
1128.00,-0.0004
1127.00,-0.0004
1126.00,-0.0004
1125.00,-0.0004
1124.00,-0.0004
1123.00,-0.0004
1122.00,-0.0004
1121.00,-0.0004
1120.00,-0.0004
1119.00,-0.0004
1118.00,-0.0004
1117.00,-0.0004
1116.00,-0.0004
1115.00,-0.0004
1114.00,-0.0004
1113.00,-0.0004
1112.00,-0.0004
1111.00,-0.0004
1110.00,-0.0004
1109.00,-0.0004
1108.00,-0.0004
1107.00,-0.0004
1106.00,-0.0004
1105.00,-0.0004
1104.00,-0.0004
1103.00,-0.0004
1102.00,-0.0003
1101.00,-0.0003
1100.00,-0.0004
1099.00,-0.0004
1098.00,-0.0004
1097.00,-0.0004
1096.00,-0.0004
1095.00,-0.0004
1094.00,-0.0004
1093.00,-0.0003
1092.00,-0.0003
1091.00,-0.0004
1090.00,-0.0004
1089.00,-0.0004
1088.00,-0.0004
1087.00,-0.0004
1086.00,-0.0003
1085.00,-0.0003
1084.00,-0.0003
1083.00,-0.0004
1082.00,-0.0004
1081.00,-0.0004
1080.00,-0.0004
1079.00,-0.0004
1078.00,-0.0004
1077.00,-0.0004
1076.00,-0.0004
1075.00,-0.0004
1074.00,-0.0003
1073.00,-0.0003
1072.00,-0.0003
1071.00,-0.0004
1070.00,-0.0004
1069.00,-0.0004
1068.00,-0.0005
1067.00,-0.0005
1066.00,-0.0004
1065.00,-0.0004
1064.00,-0.0004
1063.00,-0.0004
1062.00,-0.0004
1061.00,-0.0004
1060.00,-0.0003
1059.00,-0.0003
1058.00,-0.0003
1057.00,-0.0003
1056.00,-0.0004
1055.00,-0.0004
1054.00,-0.0004
1053.00,-0.0004
1052.00,-0.0004
1051.00,-0.0004
1050.00,-0.0004
1049.00,-0.0003
1048.00,-0.0003
1047.00,-0.0003
1046.00,-0.0003
1045.00,-0.0003
1044.00,-0.0003
1043.00,-0.0004
1042.00,-0.0004
1041.00,-0.0004
1040.00,-0.0004
1039.00,-0.0004
1038.00,-0.0004
1037.00,-0.0004
1036.00,-0.0004
1035.00,-0.0003
1034.00,-0.0003
1033.00,-0.0003
1032.00,-0.0003
1031.00,-0.0003
1030.00,-0.0003
1029.00,-0.0003
1028.00,-0.0003
1027.00,-0.0003
1026.00,-0.0003
1025.00,-0.0003
1024.00,-0.0004
1023.00,-0.0004
1022.00,-0.0004
1021.00,-0.0004
1020.00,-0.0004
1019.00,-0.0004
1018.00,-0.0004
1017.00,-0.0003
1016.00,-0.0003
1015.00,-0.0003
1014.00,-0.0003
1013.00,-0.0003
1012.00,-0.0003
1011.00,-0.0003
1010.00,-0.0003
1009.00,-0.0004
1008.00,-0.0004
1007.00,-0.0004
1006.00,-0.0004
1005.00,-0.0004
1004.00,-0.0004
1003.00,-0.0004
1002.00,-0.0004
1001.00,-0.0004
1000.00,-0.0004
999.00,-0.0004
998.00,-0.0004
997.00,-0.0004
996.00,-0.0004
995.00,-0.0004
994.00,-0.0004
993.00,-0.0004
992.00,-0.0004
991.00,-0.0003
990.00,-0.0003
989.00,-0.0003
988.00,-0.0003
987.00,-0.0003
986.00,-0.0003
985.00,-0.0003
984.00,-0.0003
983.00,-0.0004
982.00,-0.0004
981.00,-0.0004
980.00,-0.0004
979.00,-0.0004
978.00,-0.0004
977.00,-0.0004
976.00,-0.0004
975.00,-0.0004
974.00,-0.0004
973.00,-0.0004
972.00,-0.0004
971.00,-0.0003
970.00,-0.0003
969.00,-0.0003
968.00,-0.0003
967.00,-0.0004
966.00,-0.0004
965.00,-0.0004
964.00,-0.0004
963.00,-0.0004
962.00,-0.0004
961.00,-0.0004
960.00,-0.0004
959.00,-0.0004
958.00,-0.0003
957.00,-0.0003
956.00,-0.0003
955.00,-0.0003
954.00,-0.0003
953.00,-0.0003
952.00,-0.0003
951.00,-0.0004
950.00,-0.0004
949.00,-0.0004
948.00,-0.0004
947.00,-0.0004
946.00,-0.0004
945.00,-0.0004
944.00,-0.0004
943.00,-0.0004
942.00,-0.0004
941.00,-0.0004
940.00,-0.0003
939.00,-0.0003
938.00,-0.0003
937.00,-0.0004
936.00,-0.0004
935.00,-0.0004
934.00,-0.0004
933.00,-0.0004
932.00,-0.0004
931.00,-0.0004
930.00,-0.0004
929.00,-0.0004
928.00,-0.0004
927.00,-0.0004
926.00,-0.0004
925.00,-0.0004
924.00,-0.0004
923.00,-0.0004
922.00,-0.0004
921.00,-0.0004
920.00,-0.0004
919.00,-0.0004
918.00,-0.0004
917.00,-0.0004
916.00,-0.0004
915.00,-0.0004
914.00,-0.0004
913.00,-0.0004
912.00,-0.0004
911.00,-0.0004
910.00,-0.0004
909.00,-0.0004
908.00,-0.0004
907.00,-0.0003
906.00,-0.0003
905.00,-0.0003
904.00,-0.0003
903.00,-0.0004
902.00,-0.0005
901.00,-0.0005
900.00,-0.0005
899.00,-0.0005
898.00,-0.0005
897.00,-0.0004
896.00,-0.0004
895.00,-0.0004
894.00,-0.0004
893.00,-0.0004
892.00,-0.0004
891.00,-0.0004
890.00,-0.0004
889.00,-0.0004
888.00,-0.0004
887.00,-0.0004
886.00,-0.0004
885.00,-0.0004
884.00,-0.0004
883.00,-0.0004
882.00,-0.0004
881.00,-0.0004
880.00,-0.0004
879.00,-0.0004
878.00,-0.0004
877.00,-0.0004
876.00,-0.0004
875.00,-0.0004
874.00,-0.0004
873.00,-0.0004
872.00,-0.0004
871.00,-0.0004
870.00,-0.0004
869.00,-0.0004
868.00,-0.0004
867.00,-0.0004
866.00,-0.0004
865.00,-0.0004
864.00,-0.0004
863.00,-0.0004
862.00,-0.0004
861.00,-0.0005
860.00,-0.0005
859.00,-0.0005
858.00,-0.0005
857.00,-0.0004
856.00,-0.0004
855.00,-0.0004
854.00,-0.0004
853.00,-0.0005
852.00,-0.0005
851.00,-0.0005
850.00,-0.0004
849.00,-0.0004
848.00,-0.0004
847.00,-0.0004
846.00,-0.0004
845.00,-0.0004
844.00,-0.0005
843.00,-0.0004
842.00,-0.0004
841.00,-0.0003
840.00,-0.0003
839.00,-0.0003
838.00,-0.0004
837.00,-0.0004
836.00,-0.0004
835.00,-0.0004
834.00,-0.0004
833.00,-0.0004
832.00,-0.0004
831.00,-0.0005
830.00,-0.0005
829.00,-0.0005
828.00,-0.0005
827.00,-0.0005
826.00,-0.0004
825.00,-0.0004
824.00,-0.0004
823.00,-0.0004
822.00,-0.0004
821.00,-0.0004
820.00,-0.0004
819.00,-0.0004
818.00,-0.0004
817.00,-0.0005
816.00,-0.0005
815.00,-0.0005
814.00,-0.0005
813.00,-0.0005
812.00,-0.0005
811.00,-0.0005
810.00,-0.0004
809.00,-0.0004
808.00,-0.0004
807.00,-0.0004
806.00,-0.0004
805.00,-0.0004
804.00,-0.0004
803.00,-0.0004
802.00,-0.0004
801.00,-0.0004
800.00,-0.0005
799.00,-0.0005
798.00,-0.0005
797.00,-0.0005
796.00,-0.0005
795.00,-0.0005
794.00,-0.0005
793.00,-0.0004
792.00,-0.0004
791.00,-0.0004
790.00,-0.0004
789.00,-0.0004
788.00,-0.0004
787.00,-0.0004
786.00,-0.0004
785.00,-0.0004
784.00,-0.0004
783.00,-0.0004
782.00,-0.0004
781.00,-0.0004
780.00,-0.0005
779.00,-0.0004
778.00,-0.0004
777.00,-0.0003
776.00,-0.0003
775.00,-0.0004
774.00,-0.0004
773.00,-0.0004
772.00,-0.0005
771.00,-0.0005
770.00,-0.0005
769.00,-0.0005
768.00,-0.0005
767.00,-0.0004
766.00,-0.0004
765.00,-0.0004
764.00,-0.0004
763.00,-0.0005
762.00,-0.0005
761.00,-0.0004
760.00,-0.0004
759.00,-0.0004
758.00,-0.0004
757.00,-0.0005
756.00,-0.0005
755.00,-0.0005
754.00,-0.0005
753.00,-0.0005
752.00,-0.0005
751.00,-0.0005
750.00,-0.0004
749.00,-0.0004
748.00,-0.0004
747.00,-0.0005
746.00,-0.0005
745.00,-0.0005
744.00,-0.0005
743.00,-0.0005
742.00,-0.0004
741.00,-0.0004
740.00,-0.0004
739.00,-0.0005
738.00,-0.0005
737.00,-0.0005
736.00,-0.0005
735.00,-0.0005
734.00,-0.0004
733.00,-0.0004
732.00,-0.0004
731.00,-0.0004
730.00,-0.0004
729.00,-0.0004
728.00,-0.0004
727.00,-0.0004
726.00,-0.0004
725.00,-0.0004
724.00,-0.0005
723.00,-0.0005
722.00,-0.0005
721.00,-0.0005
720.00,-0.0005
719.00,-0.0004
718.00,-0.0004
717.00,-0.0004
716.00,-0.0004
715.00,-0.0004
714.00,-0.0004
713.00,-0.0005
712.00,-0.0005
711.00,-0.0005
710.00,-0.0005
709.00,-0.0004
708.00,-0.0004
707.00,-0.0004
706.00,-0.0004
705.00,-0.0004
704.00,-0.0005
703.00,-0.0005
702.00,-0.0005
701.00,-0.0006
700.00,-0.0006
699.00,-0.0005
698.00,-0.0005
697.00,-0.0005
696.00,-0.0005
695.00,-0.0005
694.00,-0.0005
693.00,-0.0005
692.00,-0.0005
691.00,-0.0005
690.00,-0.0005
689.00,-0.0005
688.00,-0.0006
687.00,-0.0006
686.00,-0.0005
685.00,-0.0005
684.00,-0.0004
683.00,-0.0004
682.00,-0.0004
681.00,-0.0004
680.00,-0.0004
679.00,-0.0005
678.00,-0.0005
677.00,-0.0006
676.00,-0.0006
675.00,-0.0006
674.00,-0.0005
673.00,-0.0006
672.00,-0.0006
671.00,-0.0008
670.00,-0.0009
669.00,-0.0011
668.00,-0.0012
667.00,-0.0011
666.00,-0.0009
665.00,-0.0007
664.00,-0.0006
663.00,-0.0005
662.00,-0.0005
661.00,-0.0005
660.00,-0.0005
659.00,-0.0006
658.00,-0.0006
657.00,-0.0006
656.00,-0.0006
655.00,-0.0006
654.00,-0.0006
653.00,-0.0006
652.00,-0.0005
651.00,-0.0005
650.00,-0.0006
649.00,-0.0006
648.00,-0.0006
647.00,-0.0005
646.00,-0.0005
645.00,-0.0004
644.00,-0.0004
643.00,-0.0004
642.00,-0.0004
641.00,-0.0004
640.00,-0.0004
639.00,-0.0004
638.00,-0.0004
637.00,-0.0004
636.00,-0.0004
635.00,-0.0005
634.00,-0.0005
633.00,-0.0005
632.00,-0.0005
631.00,-0.0004
630.00,-0.0004
629.00,-0.0004
628.00,-0.0004
627.00,-0.0005
626.00,-0.0006
625.00,-0.0006
624.00,-0.0006
623.00,-0.0006
622.00,-0.0006
621.00,-0.0006
620.00,-0.0005
619.00,-0.0005
618.00,-0.0005
617.00,-0.0004
616.00,-0.0005
615.00,-0.0005
614.00,-0.0006
613.00,-0.0006
612.00,-0.0006
611.00,-0.0006
610.00,-0.0006
609.00,-0.0005
608.00,-0.0005
607.00,-0.0005
606.00,-0.0005
605.00,-0.0006
604.00,-0.0006
603.00,-0.0005
602.00,-0.0005
601.00,-0.0005
600.00,-0.0005
599.00,-0.0005
598.00,-0.0005
597.00,-0.0005
596.00,-0.0005
595.00,-0.0005
594.00,-0.0005
593.00,-0.0006
592.00,-0.0008
591.00,-0.0009
590.00,-0.0009
589.00,-0.0007
588.00,-0.0005
587.00,-0.0004
586.00,-0.0004
585.00,-0.0005
584.00,-0.0005
583.00,-0.0005
582.00,-0.0005
581.00,-0.0005
580.00,-0.0005
579.00,-0.0005
578.00,-0.0005
577.00,-0.0005
576.00,-0.0006
575.00,-0.0006
574.00,-0.0006
573.00,-0.0005
572.00,-0.0005
571.00,-0.0006
570.00,-0.0007
569.00,-0.0008
568.00,-0.0009
567.00,-0.0009
566.00,-0.0008
565.00,-0.0007
564.00,-0.0006
563.00,-0.0005
562.00,-0.0004
561.00,-0.0004
560.00,-0.0005
559.00,-0.0007
558.00,-0.0007
557.00,-0.0006
556.00,-0.0005
555.00,-0.0004
554.00,-0.0004
553.00,-0.0004
552.00,-0.0004
551.00,-0.0004
550.00,-0.0004
549.00,-0.0004
548.00,-0.0005
547.00,-0.0005
546.00,-0.0005
545.00,-0.0005
544.00,-0.0005
543.00,-0.0005
542.00,-0.0004
541.00,-0.0004
540.00,-0.0004
539.00,-0.0004
538.00,-0.0005
537.00,-0.0006
536.00,-0.0006
535.00,-0.0005
534.00,-0.0004
533.00,-0.0004
532.00,-0.0004
531.00,-0.0005
530.00,-0.0006
529.00,-0.0006
528.00,-0.0006
527.00,-0.0006
526.00,-0.0005
525.00,-0.0005
524.00,-0.0005
523.00,-0.0005
522.00,-0.0006
521.00,-0.0007
520.00,-0.0007
519.00,-0.0006
518.00,-0.0006
517.00,-0.0005
516.00,-0.0005
515.00,-0.0006
514.00,-0.0007
513.00,-0.0007
512.00,-0.0008
511.00,-0.0008
510.00,-0.0008
509.00,-0.0009
508.00,-0.0009
507.00,-0.0009
506.00,-0.0008
505.00,-0.0008
504.00,-0.0009
503.00,-0.0009
502.00,-0.0008
501.00,-0.0008
500.00,-0.0007
