Created as New Dataset,Sample 027 By Analyst Date Friday, March 28 2025
cm-1,A
4000.00,0.0122
3999.00,0.0122
3998.00,0.0122
3997.00,0.0122
3996.00,0.0122
3995.00,0.0122
3994.00,0.0122
3993.00,0.0122
3992.00,0.0122
3991.00,0.0122
3990.00,0.0122
3989.00,0.0122
3988.00,0.0122
3987.00,0.0122
3986.00,0.0123
3985.00,0.0123
3984.00,0.0123
3983.00,0.0123
3982.00,0.0123
3981.00,0.0123
3980.00,0.0123
3979.00,0.0123
3978.00,0.0123
3977.00,0.0123
3976.00,0.0123
3975.00,0.0123
3974.00,0.0123
3973.00,0.0123
3972.00,0.0123
3971.00,0.0123
3970.00,0.0123
3969.00,0.0123
3968.00,0.0123
3967.00,0.0123
3966.00,0.0123
3965.00,0.0123
3964.00,0.0123
3963.00,0.0123
3962.00,0.0124
3961.00,0.0124
3960.00,0.0124
3959.00,0.0124
3958.00,0.0123
3957.00,0.0123
3956.00,0.0124
3955.00,0.0124
3954.00,0.0124
3953.00,0.0124
3952.00,0.0124
3951.00,0.0125
3950.00,0.0125
3949.00,0.0125
3948.00,0.0125
3947.00,0.0125
3946.00,0.0125
3945.00,0.0125
3944.00,0.0125
3943.00,0.0125
3942.00,0.0125
3941.00,0.0125
3940.00,0.0125
3939.00,0.0124
3938.00,0.0125
3937.00,0.0125
3936.00,0.0126
3935.00,0.0126
3934.00,0.0126
3933.00,0.0126
3932.00,0.0126
3931.00,0.0125
3930.00,0.0125
3929.00,0.0125
3928.00,0.0126
3927.00,0.0126
3926.00,0.0126
3925.00,0.0126
3924.00,0.0126
3923.00,0.0126
3922.00,0.0127
3921.00,0.0127
3920.00,0.0127
3919.00,0.0127
3918.00,0.0127
3917.00,0.0126
3916.00,0.0126
3915.00,0.0125
3914.00,0.0125
3913.00,0.0125
3912.00,0.0125
3911.00,0.0125
3910.00,0.0126
3909.00,0.0126
3908.00,0.0127
3907.00,0.0127
3906.00,0.0128
3905.00,0.0129
3904.00,0.0130
3903.00,0.0131
3902.00,0.0131
3901.00,0.0130
3900.00,0.0128
3899.00,0.0128
3898.00,0.0128
3897.00,0.0128
3896.00,0.0128
3895.00,0.0128
3894.00,0.0127
3893.00,0.0127
3892.00,0.0127
3891.00,0.0127
3890.00,0.0128
3889.00,0.0129
3888.00,0.0129
3887.00,0.0128
3886.00,0.0129
3885.00,0.0130
3884.00,0.0130
3883.00,0.0129
3882.00,0.0128
3881.00,0.0127
3880.00,0.0128
3879.00,0.0129
3878.00,0.0129
3877.00,0.0128
3876.00,0.0128
3875.00,0.0128
3874.00,0.0130
3873.00,0.0130
3872.00,0.0130
3871.00,0.0129
3870.00,0.0129
3869.00,0.0130
3868.00,0.0131
3867.00,0.0130
3866.00,0.0129
3865.00,0.0129
3864.00,0.0130
3863.00,0.0130
3862.00,0.0129
3861.00,0.0129
3860.00,0.0129
3859.00,0.0129
3858.00,0.0129
3857.00,0.0128
3856.00,0.0127
3855.00,0.0126
3854.00,0.0126
3853.00,0.0129
3852.00,0.0131
3851.00,0.0130
3850.00,0.0128
3849.00,0.0128
3848.00,0.0129
3847.00,0.0130
3846.00,0.0130
3845.00,0.0130
3844.00,0.0130
3843.00,0.0130
3842.00,0.0131
3841.00,0.0131
3840.00,0.0130
3839.00,0.0130
3838.00,0.0130
3837.00,0.0131
3836.00,0.0130
3835.00,0.0130
3834.00,0.0129
3833.00,0.0129
3832.00,0.0130
3831.00,0.0130
3830.00,0.0130
3829.00,0.0130
3828.00,0.0129
3827.00,0.0129
3826.00,0.0130
3825.00,0.0131
3824.00,0.0131
3823.00,0.0130
3822.00,0.0130
3821.00,0.0131
3820.00,0.0132
3819.00,0.0131
3818.00,0.0130
3817.00,0.0129
3816.00,0.0130
3815.00,0.0131
3814.00,0.0130
3813.00,0.0129
3812.00,0.0128
3811.00,0.0129
3810.00,0.0130
3809.00,0.0130
3808.00,0.0129
3807.00,0.0129
3806.00,0.0131
3805.00,0.0131
3804.00,0.0130
3803.00,0.0129
3802.00,0.0129
3801.00,0.0131
3800.00,0.0132
3799.00,0.0131
3798.00,0.0130
3797.00,0.0130
3796.00,0.0130
3795.00,0.0131
3794.00,0.0130
3793.00,0.0129
3792.00,0.0129
3791.00,0.0129
3790.00,0.0129
3789.00,0.0129
3788.00,0.0129
3787.00,0.0129
3786.00,0.0129
3785.00,0.0129
3784.00,0.0130
3783.00,0.0130
3782.00,0.0130
3781.00,0.0130
3780.00,0.0130
3779.00,0.0130
3778.00,0.0130
3777.00,0.0130
3776.00,0.0129
3775.00,0.0130
3774.00,0.0130
3773.00,0.0130
3772.00,0.0130
3771.00,0.0130
3770.00,0.0131
3769.00,0.0131
3768.00,0.0132
3767.00,0.0131
3766.00,0.0131
3765.00,0.0131
3764.00,0.0132
3763.00,0.0132
3762.00,0.0131
3761.00,0.0131
3760.00,0.0132
3759.00,0.0132
3758.00,0.0133
3757.00,0.0133
3756.00,0.0133
3755.00,0.0133
3754.00,0.0134
3753.00,0.0134
3752.00,0.0134
3751.00,0.0134
3750.00,0.0135
3749.00,0.0135
3748.00,0.0135
3747.00,0.0135
3746.00,0.0133
3745.00,0.0133
3744.00,0.0135
3743.00,0.0136
3742.00,0.0135
3741.00,0.0134
3740.00,0.0135
3739.00,0.0138
3738.00,0.0139
3737.00,0.0139
3736.00,0.0137
3735.00,0.0135
3734.00,0.0133
3733.00,0.0132
3732.00,0.0132
3731.00,0.0133
3730.00,0.0134
3729.00,0.0134
3728.00,0.0134
3727.00,0.0134
3726.00,0.0135
3725.00,0.0134
3724.00,0.0134
3723.00,0.0133
3722.00,0.0133
3721.00,0.0134
3720.00,0.0133
3719.00,0.0133
3718.00,0.0133
3717.00,0.0134
3716.00,0.0134
3715.00,0.0134
3714.00,0.0134
3713.00,0.0134
3712.00,0.0134
3711.00,0.0134
3710.00,0.0133
3709.00,0.0133
3708.00,0.0132
3707.00,0.0132
3706.00,0.0132
3705.00,0.0131
3704.00,0.0131
3703.00,0.0131
3702.00,0.0130
3701.00,0.0131
3700.00,0.0131
3699.00,0.0131
3698.00,0.0131
3697.00,0.0131
3696.00,0.0131
3695.00,0.0132
3694.00,0.0132
3693.00,0.0132
3692.00,0.0132
3691.00,0.0132
3690.00,0.0131
3689.00,0.0131
3688.00,0.0132
3687.00,0.0132
3686.00,0.0131
3685.00,0.0131
3684.00,0.0131
3683.00,0.0132
3682.00,0.0132
3681.00,0.0132
3680.00,0.0132
3679.00,0.0133
3678.00,0.0133
3677.00,0.0133
3676.00,0.0132
3675.00,0.0133
3674.00,0.0134
3673.00,0.0133
3672.00,0.0133
3671.00,0.0132
3670.00,0.0133
3669.00,0.0133
3668.00,0.0132
3667.00,0.0131
3666.00,0.0130
3665.00,0.0130
3664.00,0.0130
3663.00,0.0130
3662.00,0.0130
3661.00,0.0130
3660.00,0.0130
3659.00,0.0130
3658.00,0.0130
3657.00,0.0130
3656.00,0.0131
3655.00,0.0132
3654.00,0.0133
3653.00,0.0133
3652.00,0.0135
3651.00,0.0136
3650.00,0.0136
3649.00,0.0136
3648.00,0.0135
3647.00,0.0134
3646.00,0.0133
3645.00,0.0132
3644.00,0.0132
3643.00,0.0131
3642.00,0.0131
3641.00,0.0130
3640.00,0.0130
3639.00,0.0130
3638.00,0.0130
3637.00,0.0130
3636.00,0.0130
3635.00,0.0131
3634.00,0.0131
3633.00,0.0132
3632.00,0.0133
3631.00,0.0133
3630.00,0.0132
3629.00,0.0132
3628.00,0.0132
3627.00,0.0132
3626.00,0.0131
3625.00,0.0130
3624.00,0.0131
3623.00,0.0131
3622.00,0.0131
3621.00,0.0130
3620.00,0.0130
3619.00,0.0131
3618.00,0.0132
3617.00,0.0133
3616.00,0.0133
3615.00,0.0133
3614.00,0.0133
3613.00,0.0133
3612.00,0.0133
3611.00,0.0133
3610.00,0.0133
3609.00,0.0132
3608.00,0.0131
3607.00,0.0130
3606.00,0.0130
3605.00,0.0129
3604.00,0.0129
3603.00,0.0129
3602.00,0.0129
3601.00,0.0129
3600.00,0.0129
3599.00,0.0130
3598.00,0.0130
3597.00,0.0130
3596.00,0.0130
3595.00,0.0130
3594.00,0.0130
3593.00,0.0130
3592.00,0.0131
3591.00,0.0132
3590.00,0.0132
3589.00,0.0132
3588.00,0.0132
3587.00,0.0131
3586.00,0.0130
3585.00,0.0129
3584.00,0.0129
3583.00,0.0129
3582.00,0.0129
3581.00,0.0128
3580.00,0.0128
3579.00,0.0128
3578.00,0.0127
3577.00,0.0127
3576.00,0.0127
3575.00,0.0127
3574.00,0.0128
3573.00,0.0128
3572.00,0.0129
3571.00,0.0130
3570.00,0.0131
3569.00,0.0132
3568.00,0.0132
3567.00,0.0131
3566.00,0.0130
3565.00,0.0129
3564.00,0.0129
3563.00,0.0128
3562.00,0.0128
3561.00,0.0128
3560.00,0.0127
3559.00,0.0127
3558.00,0.0127
3557.00,0.0127
3556.00,0.0127
3555.00,0.0127
3554.00,0.0127
3553.00,0.0127
3552.00,0.0127
3551.00,0.0127
3550.00,0.0128
3549.00,0.0128
3548.00,0.0128
3547.00,0.0128
3546.00,0.0128
3545.00,0.0127
3544.00,0.0126
3543.00,0.0126
3542.00,0.0126
3541.00,0.0126
3540.00,0.0126
3539.00,0.0126
3538.00,0.0126
3537.00,0.0125
3536.00,0.0125
3535.00,0.0125
3534.00,0.0125
3533.00,0.0125
3532.00,0.0125
3531.00,0.0126
3530.00,0.0126
3529.00,0.0126
3528.00,0.0126
3527.00,0.0126
3526.00,0.0126
3525.00,0.0126
3524.00,0.0126
3523.00,0.0125
3522.00,0.0125
3521.00,0.0125
3520.00,0.0125
3519.00,0.0124
3518.00,0.0124
3517.00,0.0124
3516.00,0.0124
3515.00,0.0124
3514.00,0.0124
3513.00,0.0124
3512.00,0.0124
3511.00,0.0124
3510.00,0.0124
3509.00,0.0124
3508.00,0.0124
3507.00,0.0124
3506.00,0.0125
3505.00,0.0125
3504.00,0.0125
3503.00,0.0125
3502.00,0.0124
3501.00,0.0124
3500.00,0.0124
3499.00,0.0124
3498.00,0.0123
3497.00,0.0123
3496.00,0.0123
3495.00,0.0123
3494.00,0.0123
3493.00,0.0123
3492.00,0.0123
3491.00,0.0123
3490.00,0.0123
3489.00,0.0123
3488.00,0.0123
3487.00,0.0123
3486.00,0.0123
3485.00,0.0123
3484.00,0.0123
3483.00,0.0123
3482.00,0.0123
3481.00,0.0123
3480.00,0.0122
3479.00,0.0122
3478.00,0.0122
3477.00,0.0122
3476.00,0.0122
3475.00,0.0122
3474.00,0.0122
3473.00,0.0122
3472.00,0.0122
3471.00,0.0122
3470.00,0.0122
3469.00,0.0122
3468.00,0.0122
3467.00,0.0122
3466.00,0.0122
3465.00,0.0122
3464.00,0.0122
3463.00,0.0122
3462.00,0.0122
3461.00,0.0122
3460.00,0.0122
3459.00,0.0122
3458.00,0.0122
3457.00,0.0122
3456.00,0.0122
3455.00,0.0122
3454.00,0.0122
3453.00,0.0122
3452.00,0.0122
3451.00,0.0122
3450.00,0.0122
3449.00,0.0122
3448.00,0.0122
3447.00,0.0122
3446.00,0.0122
3445.00,0.0122
3444.00,0.0122
3443.00,0.0122
3442.00,0.0122
3441.00,0.0122
3440.00,0.0122
3439.00,0.0122
3438.00,0.0122
3437.00,0.0122
3436.00,0.0122
3435.00,0.0122
3434.00,0.0122
3433.00,0.0122
3432.00,0.0122
3431.00,0.0122
3430.00,0.0122
3429.00,0.0122
3428.00,0.0122
3427.00,0.0122
3426.00,0.0122
3425.00,0.0122
3424.00,0.0122
3423.00,0.0122
3422.00,0.0122
3421.00,0.0122
3420.00,0.0122
3419.00,0.0122
3418.00,0.0122
3417.00,0.0122
3416.00,0.0122
3415.00,0.0122
3414.00,0.0122
3413.00,0.0122
3412.00,0.0122
3411.00,0.0122
3410.00,0.0122
3409.00,0.0122
3408.00,0.0122
3407.00,0.0122
3406.00,0.0122
3405.00,0.0122
3404.00,0.0122
3403.00,0.0122
3402.00,0.0122
3401.00,0.0122
3400.00,0.0122
3399.00,0.0122
3398.00,0.0122
3397.00,0.0122
3396.00,0.0122
3395.00,0.0122
3394.00,0.0122
3393.00,0.0122
3392.00,0.0122
3391.00,0.0122
3390.00,0.0122
3389.00,0.0122
3388.00,0.0122
3387.00,0.0122
3386.00,0.0122
3385.00,0.0122
3384.00,0.0122
3383.00,0.0122
3382.00,0.0122
3381.00,0.0122
3380.00,0.0122
3379.00,0.0122
3378.00,0.0123
3377.00,0.0123
3376.00,0.0123
3375.00,0.0123
3374.00,0.0123
3373.00,0.0123
3372.00,0.0123
3371.00,0.0123
3370.00,0.0123
3369.00,0.0123
3368.00,0.0123
3367.00,0.0123
3366.00,0.0123
3365.00,0.0123
3364.00,0.0123
3363.00,0.0123
3362.00,0.0123
3361.00,0.0124
3360.00,0.0124
3359.00,0.0124
3358.00,0.0124
3357.00,0.0124
3356.00,0.0124
3355.00,0.0124
3354.00,0.0124
3353.00,0.0124
3352.00,0.0124
3351.00,0.0124
3350.00,0.0124
3349.00,0.0124
3348.00,0.0124
3347.00,0.0124
3346.00,0.0124
3345.00,0.0124
3344.00,0.0124
3343.00,0.0124
3342.00,0.0124
3341.00,0.0125
3340.00,0.0125
3339.00,0.0125
3338.00,0.0125
3337.00,0.0125
3336.00,0.0125
3335.00,0.0125
3334.00,0.0125
3333.00,0.0125
3332.00,0.0125
3331.00,0.0125
3330.00,0.0125
3329.00,0.0125
3328.00,0.0125
3327.00,0.0125
3326.00,0.0125
3325.00,0.0125
3324.00,0.0125
3323.00,0.0125
3322.00,0.0126
3321.00,0.0126
3320.00,0.0126
3319.00,0.0126
3318.00,0.0126
3317.00,0.0126
3316.00,0.0126
3315.00,0.0126
3314.00,0.0126
3313.00,0.0126
3312.00,0.0126
3311.00,0.0126
3310.00,0.0126
3309.00,0.0126
3308.00,0.0126
3307.00,0.0126
3306.00,0.0126
3305.00,0.0126
3304.00,0.0126
3303.00,0.0126
3302.00,0.0126
3301.00,0.0126
3300.00,0.0126
3299.00,0.0127
3298.00,0.0127
3297.00,0.0127
3296.00,0.0127
3295.00,0.0127
3294.00,0.0127
3293.00,0.0127
3292.00,0.0127
3291.00,0.0127
3290.00,0.0127
3289.00,0.0127
3288.00,0.0127
3287.00,0.0127
3286.00,0.0127
3285.00,0.0127
3284.00,0.0127
3283.00,0.0127
3282.00,0.0127
3281.00,0.0127
3280.00,0.0127
3279.00,0.0128
3278.00,0.0128
3277.00,0.0128
3276.00,0.0128
3275.00,0.0128
3274.00,0.0128
3273.00,0.0128
3272.00,0.0128
3271.00,0.0128
3270.00,0.0128
3269.00,0.0128
3268.00,0.0128
3267.00,0.0128
3266.00,0.0128
3265.00,0.0128
3264.00,0.0128
3263.00,0.0128
3262.00,0.0128
3261.00,0.0128
3260.00,0.0128
3259.00,0.0128
3258.00,0.0128
3257.00,0.0128
3256.00,0.0128
3255.00,0.0128
3254.00,0.0128
3253.00,0.0128
3252.00,0.0128
3251.00,0.0128
3250.00,0.0128
3249.00,0.0128
3248.00,0.0129
3247.00,0.0128
3246.00,0.0128
3245.00,0.0128
3244.00,0.0129
3243.00,0.0129
3242.00,0.0129
3241.00,0.0129
3240.00,0.0129
3239.00,0.0129
3238.00,0.0129
3237.00,0.0129
3236.00,0.0129
3235.00,0.0129
3234.00,0.0129
3233.00,0.0129
3232.00,0.0129
3231.00,0.0129
3230.00,0.0129
3229.00,0.0129
3228.00,0.0129
3227.00,0.0129
3226.00,0.0129
3225.00,0.0129
3224.00,0.0129
3223.00,0.0129
3222.00,0.0130
3221.00,0.0130
3220.00,0.0130
3219.00,0.0130
3218.00,0.0130
3217.00,0.0130
3216.00,0.0130
3215.00,0.0130
3214.00,0.0130
3213.00,0.0130
3212.00,0.0130
3211.00,0.0130
3210.00,0.0130
3209.00,0.0130
3208.00,0.0130
3207.00,0.0130
3206.00,0.0130
3205.00,0.0130
3204.00,0.0130
3203.00,0.0130
3202.00,0.0130
3201.00,0.0131
3200.00,0.0131
3199.00,0.0131
3198.00,0.0131
3197.00,0.0131
3196.00,0.0131
3195.00,0.0131
3194.00,0.0131
3193.00,0.0131
3192.00,0.0131
3191.00,0.0131
3190.00,0.0131
3189.00,0.0131
3188.00,0.0131
3187.00,0.0131
3186.00,0.0132
3185.00,0.0132
3184.00,0.0132
3183.00,0.0132
3182.00,0.0132
3181.00,0.0132
3180.00,0.0132
3179.00,0.0132
3178.00,0.0132
3177.00,0.0132
3176.00,0.0132
3175.00,0.0132
3174.00,0.0132
3173.00,0.0132
3172.00,0.0132
3171.00,0.0132
3170.00,0.0132
3169.00,0.0132
3168.00,0.0132
3167.00,0.0132
3166.00,0.0133
3165.00,0.0133
3164.00,0.0133
3163.00,0.0133
3162.00,0.0133
3161.00,0.0133
3160.00,0.0133
3159.00,0.0133
3158.00,0.0133
3157.00,0.0133
3156.00,0.0133
3155.00,0.0133
3154.00,0.0133
3153.00,0.0133
3152.00,0.0133
3151.00,0.0133
3150.00,0.0133
3149.00,0.0133
3148.00,0.0133
3147.00,0.0133
3146.00,0.0133
3145.00,0.0133
3144.00,0.0134
3143.00,0.0134
3142.00,0.0134
3141.00,0.0134
3140.00,0.0134
3139.00,0.0134
3138.00,0.0134
3137.00,0.0134
3136.00,0.0134
3135.00,0.0134
3134.00,0.0134
3133.00,0.0134
3132.00,0.0134
3131.00,0.0134
3130.00,0.0134
3129.00,0.0134
3128.00,0.0134
3127.00,0.0134
3126.00,0.0134
3125.00,0.0134
3124.00,0.0135
3123.00,0.0135
3122.00,0.0135
3121.00,0.0135
3120.00,0.0135
3119.00,0.0135
3118.00,0.0135
3117.00,0.0135
3116.00,0.0135
3115.00,0.0135
3114.00,0.0135
3113.00,0.0135
3112.00,0.0135
3111.00,0.0135
3110.00,0.0135
3109.00,0.0135
3108.00,0.0135
3107.00,0.0135
3106.00,0.0135
3105.00,0.0135
3104.00,0.0135
3103.00,0.0135
3102.00,0.0135
3101.00,0.0135
3100.00,0.0135
3099.00,0.0135
3098.00,0.0135
3097.00,0.0135
3096.00,0.0135
3095.00,0.0135
3094.00,0.0135
3093.00,0.0135
3092.00,0.0135
3091.00,0.0136
3090.00,0.0136
3089.00,0.0136
3088.00,0.0136
3087.00,0.0136
3086.00,0.0136
3085.00,0.0136
3084.00,0.0136
3083.00,0.0136
3082.00,0.0136
3081.00,0.0136
3080.00,0.0136
3079.00,0.0136
3078.00,0.0136
3077.00,0.0136
3076.00,0.0136
3075.00,0.0136
3074.00,0.0136
3073.00,0.0136
3072.00,0.0136
3071.00,0.0136
3070.00,0.0136
3069.00,0.0136
3068.00,0.0136
3067.00,0.0136
3066.00,0.0136
3065.00,0.0136
3064.00,0.0137
3063.00,0.0137
3062.00,0.0137
3061.00,0.0137
3060.00,0.0137
3059.00,0.0137
3058.00,0.0137
3057.00,0.0137
3056.00,0.0137
3055.00,0.0137
3054.00,0.0137
3053.00,0.0137
3052.00,0.0137
3051.00,0.0137
3050.00,0.0137
3049.00,0.0137
3048.00,0.0137
3047.00,0.0137
3046.00,0.0137
3045.00,0.0137
3044.00,0.0137
3043.00,0.0137
3042.00,0.0137
3041.00,0.0137
3040.00,0.0137
3039.00,0.0137
3038.00,0.0137
3037.00,0.0137
3036.00,0.0137
3035.00,0.0137
3034.00,0.0137
3033.00,0.0137
3032.00,0.0137
3031.00,0.0136
3030.00,0.0136
3029.00,0.0136
3028.00,0.0136
3027.00,0.0136
3026.00,0.0136
3025.00,0.0136
3024.00,0.0136
3023.00,0.0136
3022.00,0.0136
3021.00,0.0136
3020.00,0.0135
3019.00,0.0135
3018.00,0.0135
3017.00,0.0135
3016.00,0.0135
3015.00,0.0135
3014.00,0.0135
3013.00,0.0135
3012.00,0.0135
3011.00,0.0134
3010.00,0.0134
3009.00,0.0134
3008.00,0.0134
3007.00,0.0134
3006.00,0.0134
3005.00,0.0134
3004.00,0.0134
3003.00,0.0133
3002.00,0.0133
3001.00,0.0133
3000.00,0.0133
2999.00,0.0133
2998.00,0.0133
2997.00,0.0133
2996.00,0.0133
2995.00,0.0133
2994.00,0.0133
2993.00,0.0132
2992.00,0.0132
2991.00,0.0132
2990.00,0.0131
2989.00,0.0131
2988.00,0.0131
2987.00,0.0131
2986.00,0.0131
2985.00,0.0132
2984.00,0.0132
2983.00,0.0132
2982.00,0.0132
2981.00,0.0132
2980.00,0.0132
2979.00,0.0132
2978.00,0.0132
2977.00,0.0132
2976.00,0.0132
2975.00,0.0132
2974.00,0.0132
2973.00,0.0132
2972.00,0.0132
2971.00,0.0133
2970.00,0.0133
2969.00,0.0133
2968.00,0.0133
2967.00,0.0133
2966.00,0.0133
2965.00,0.0133
2964.00,0.0133
2963.00,0.0133
2962.00,0.0133
2961.00,0.0133
2960.00,0.0133
2959.00,0.0133
2958.00,0.0133
2957.00,0.0133
2956.00,0.0133
2955.00,0.0133
2954.00,0.0133
2953.00,0.0133
2952.00,0.0133
2951.00,0.0134
2950.00,0.0134
2949.00,0.0134
2948.00,0.0134
2947.00,0.0134
2946.00,0.0134
2945.00,0.0134
2944.00,0.0134
2943.00,0.0134
2942.00,0.0134
2941.00,0.0135
2940.00,0.0135
2939.00,0.0135
2938.00,0.0135
2937.00,0.0135
2936.00,0.0135
2935.00,0.0135
2934.00,0.0135
2933.00,0.0135
2932.00,0.0135
2931.00,0.0135
2930.00,0.0134
2929.00,0.0134
2928.00,0.0134
2927.00,0.0134
2926.00,0.0134
2925.00,0.0133
2924.00,0.0133
2923.00,0.0133
2922.00,0.0133
2921.00,0.0132
2920.00,0.0132
2919.00,0.0132
2918.00,0.0132
2917.00,0.0132
2916.00,0.0132
2915.00,0.0132
2914.00,0.0132
2913.00,0.0132
2912.00,0.0132
2911.00,0.0132
2910.00,0.0132
2909.00,0.0133
2908.00,0.0133
2907.00,0.0133
2906.00,0.0133
2905.00,0.0133
2904.00,0.0133
2903.00,0.0133
2902.00,0.0133
2901.00,0.0133
2900.00,0.0133
2899.00,0.0133
2898.00,0.0133
2897.00,0.0134
2896.00,0.0134
2895.00,0.0134
2894.00,0.0134
2893.00,0.0134
2892.00,0.0134
2891.00,0.0134
2890.00,0.0134
2889.00,0.0134
2888.00,0.0134
2887.00,0.0134
2886.00,0.0135
2885.00,0.0135
2884.00,0.0135
2883.00,0.0135
2882.00,0.0135
2881.00,0.0135
2880.00,0.0135
2879.00,0.0136
2878.00,0.0136
2877.00,0.0136
2876.00,0.0136
2875.00,0.0136
2874.00,0.0136
2873.00,0.0136
2872.00,0.0136
2871.00,0.0136
2870.00,0.0136
2869.00,0.0137
2868.00,0.0137
2867.00,0.0137
2866.00,0.0137
2865.00,0.0137
2864.00,0.0137
2863.00,0.0137
2862.00,0.0137
2861.00,0.0137
2860.00,0.0137
2859.00,0.0137
2858.00,0.0137
2857.00,0.0137
2856.00,0.0137
2855.00,0.0137
2854.00,0.0137
2853.00,0.0137
2852.00,0.0137
2851.00,0.0137
2850.00,0.0137
2849.00,0.0137
2848.00,0.0137
2847.00,0.0137
2846.00,0.0137
2845.00,0.0137
2844.00,0.0137
2843.00,0.0137
2842.00,0.0138
2841.00,0.0138
2840.00,0.0138
2839.00,0.0138
2838.00,0.0138
2837.00,0.0138
2836.00,0.0138
2835.00,0.0138
2834.00,0.0139
2833.00,0.0139
2832.00,0.0139
2831.00,0.0139
2830.00,0.0139
2829.00,0.0139
2828.00,0.0139
2827.00,0.0139
2826.00,0.0139
2825.00,0.0139
2824.00,0.0139
2823.00,0.0139
2822.00,0.0139
2821.00,0.0139
2820.00,0.0139
2819.00,0.0139
2818.00,0.0139
2817.00,0.0139
2816.00,0.0139
2815.00,0.0139
2814.00,0.0139
2813.00,0.0140
2812.00,0.0140
2811.00,0.0140
2810.00,0.0140
2809.00,0.0140
2808.00,0.0140
2807.00,0.0140
2806.00,0.0140
2805.00,0.0140
2804.00,0.0140
2803.00,0.0140
2802.00,0.0140
2801.00,0.0140
2800.00,0.0140
2799.00,0.0140
2798.00,0.0140
2797.00,0.0140
2796.00,0.0140
2795.00,0.0140
2794.00,0.0140
2793.00,0.0140
2792.00,0.0140
2791.00,0.0140
2790.00,0.0140
2789.00,0.0140
2788.00,0.0140
2787.00,0.0140
2786.00,0.0140
2785.00,0.0140
2784.00,0.0140
2783.00,0.0140
2782.00,0.0140
2781.00,0.0140
2780.00,0.0140
2779.00,0.0140
2778.00,0.0140
2777.00,0.0140
2776.00,0.0140
2775.00,0.0140
2774.00,0.0140
2773.00,0.0140
2772.00,0.0140
2771.00,0.0140
2770.00,0.0140
2769.00,0.0140
2768.00,0.0140
2767.00,0.0140
2766.00,0.0140
2765.00,0.0140
2764.00,0.0140
2763.00,0.0140
2762.00,0.0140
2761.00,0.0140
2760.00,0.0140
2759.00,0.0140
2758.00,0.0140
2757.00,0.0140
2756.00,0.0140
2755.00,0.0140
2754.00,0.0140
2753.00,0.0140
2752.00,0.0140
2751.00,0.0140
2750.00,0.0140
2749.00,0.0140
2748.00,0.0140
2747.00,0.0140
2746.00,0.0140
2745.00,0.0140
2744.00,0.0140
2743.00,0.0140
2742.00,0.0140
2741.00,0.0140
2740.00,0.0140
2739.00,0.0140
2738.00,0.0140
2737.00,0.0140
2736.00,0.0141
2735.00,0.0141
2734.00,0.0141
2733.00,0.0141
2732.00,0.0141
2731.00,0.0141
2730.00,0.0141
2729.00,0.0141
2728.00,0.0141
2727.00,0.0141
2726.00,0.0141
2725.00,0.0141
2724.00,0.0141
2723.00,0.0141
2722.00,0.0141
2721.00,0.0141
2720.00,0.0141
2719.00,0.0141
2718.00,0.0141
2717.00,0.0141
2716.00,0.0141
2715.00,0.0141
2714.00,0.0141
2713.00,0.0141
2712.00,0.0141
2711.00,0.0141
2710.00,0.0141
2709.00,0.0141
2708.00,0.0141
2707.00,0.0141
2706.00,0.0141
2705.00,0.0141
2704.00,0.0141
2703.00,0.0141
2702.00,0.0141
2701.00,0.0141
2700.00,0.0141
2699.00,0.0141
2698.00,0.0141
2697.00,0.0141
2696.00,0.0141
2695.00,0.0141
2694.00,0.0141
2693.00,0.0141
2692.00,0.0141
2691.00,0.0141
2690.00,0.0141
2689.00,0.0141
2688.00,0.0141
2687.00,0.0141
2686.00,0.0141
2685.00,0.0141
2684.00,0.0141
2683.00,0.0141
2682.00,0.0141
2681.00,0.0141
2680.00,0.0141
2679.00,0.0141
2678.00,0.0141
2677.00,0.0141
2676.00,0.0141
2675.00,0.0141
2674.00,0.0141
2673.00,0.0141
2672.00,0.0141
2671.00,0.0141
2670.00,0.0141
2669.00,0.0141
2668.00,0.0141
2667.00,0.0141
2666.00,0.0141
2665.00,0.0141
2664.00,0.0141
2663.00,0.0141
2662.00,0.0141
2661.00,0.0141
2660.00,0.0141
2659.00,0.0141
2658.00,0.0141
2657.00,0.0141
2656.00,0.0141
2655.00,0.0141
2654.00,0.0141
2653.00,0.0141
2652.00,0.0141
2651.00,0.0141
2650.00,0.0141
2649.00,0.0141
2648.00,0.0141
2647.00,0.0142
2646.00,0.0142
2645.00,0.0142
2644.00,0.0141
2643.00,0.0141
2642.00,0.0141
2641.00,0.0141
2640.00,0.0142
2639.00,0.0142
2638.00,0.0142
2637.00,0.0142
2636.00,0.0142
2635.00,0.0142
2634.00,0.0142
2633.00,0.0142
2632.00,0.0142
2631.00,0.0142
2630.00,0.0142
2629.00,0.0142
2628.00,0.0142
2627.00,0.0142
2626.00,0.0142
2625.00,0.0142
2624.00,0.0142
2623.00,0.0142
2622.00,0.0142
2621.00,0.0142
2620.00,0.0142
2619.00,0.0142
2618.00,0.0142
2617.00,0.0142
2616.00,0.0142
2615.00,0.0142
2614.00,0.0142
2613.00,0.0142
2612.00,0.0142
2611.00,0.0142
2610.00,0.0142
2609.00,0.0142
2608.00,0.0142
2607.00,0.0142
2606.00,0.0142
2605.00,0.0142
2604.00,0.0142
2603.00,0.0142
2602.00,0.0142
2601.00,0.0142
2600.00,0.0142
2599.00,0.0142
2598.00,0.0142
2597.00,0.0142
2596.00,0.0142
2595.00,0.0142
2594.00,0.0142
2593.00,0.0142
2592.00,0.0142
2591.00,0.0142
2590.00,0.0142
2589.00,0.0142
2588.00,0.0142
2587.00,0.0142
2586.00,0.0142
2585.00,0.0142
2584.00,0.0142
2583.00,0.0142
2582.00,0.0142
2581.00,0.0142
2580.00,0.0142
2579.00,0.0142
2578.00,0.0142
2577.00,0.0142
2576.00,0.0142
2575.00,0.0142
2574.00,0.0142
2573.00,0.0142
2572.00,0.0142
2571.00,0.0142
2570.00,0.0142
2569.00,0.0142
2568.00,0.0142
2567.00,0.0142
2566.00,0.0142
2565.00,0.0142
2564.00,0.0142
2563.00,0.0142
2562.00,0.0142
2561.00,0.0142
2560.00,0.0142
2559.00,0.0142
2558.00,0.0142
2557.00,0.0142
2556.00,0.0142
2555.00,0.0142
2554.00,0.0142
2553.00,0.0142
2552.00,0.0142
2551.00,0.0142
2550.00,0.0142
2549.00,0.0142
2548.00,0.0142
2547.00,0.0142
2546.00,0.0142
2545.00,0.0142
2544.00,0.0142
2543.00,0.0142
2542.00,0.0142
2541.00,0.0142
2540.00,0.0142
2539.00,0.0142
2538.00,0.0142
2537.00,0.0142
2536.00,0.0142
2535.00,0.0142
2534.00,0.0142
2533.00,0.0142
2532.00,0.0142
2531.00,0.0142
2530.00,0.0142
2529.00,0.0142
2528.00,0.0142
2527.00,0.0142
2526.00,0.0142
2525.00,0.0142
2524.00,0.0142
2523.00,0.0142
2522.00,0.0142
2521.00,0.0142
2520.00,0.0142
2519.00,0.0142
2518.00,0.0142
2517.00,0.0142
2516.00,0.0142
2515.00,0.0142
2514.00,0.0142
2513.00,0.0142
2512.00,0.0142
2511.00,0.0142
2510.00,0.0142
2509.00,0.0142
2508.00,0.0142
2507.00,0.0142
2506.00,0.0142
2505.00,0.0142
2504.00,0.0142
2503.00,0.0142
2502.00,0.0142
2501.00,0.0142
2500.00,0.0142
2499.00,0.0142
2498.00,0.0142
2497.00,0.0142
2496.00,0.0142
2495.00,0.0142
2494.00,0.0142
2493.00,0.0142
2492.00,0.0142
2491.00,0.0143
2490.00,0.0143
2489.00,0.0143
2488.00,0.0142
2487.00,0.0142
2486.00,0.0142
2485.00,0.0142
2484.00,0.0142
2483.00,0.0142
2482.00,0.0142
2481.00,0.0142
2480.00,0.0142
2479.00,0.0142
2478.00,0.0142
2477.00,0.0142
2476.00,0.0142
2475.00,0.0142
2474.00,0.0143
2473.00,0.0143
2472.00,0.0143
2471.00,0.0143
2470.00,0.0143
2469.00,0.0143
2468.00,0.0143
2467.00,0.0143
2466.00,0.0143
2465.00,0.0143
2464.00,0.0143
2463.00,0.0143
2462.00,0.0143
2461.00,0.0143
2460.00,0.0143
2459.00,0.0143
2458.00,0.0143
2457.00,0.0143
2456.00,0.0143
2455.00,0.0143
2454.00,0.0143
2453.00,0.0143
2452.00,0.0143
2451.00,0.0143
2450.00,0.0143
2449.00,0.0143
2448.00,0.0143
2447.00,0.0143
2446.00,0.0143
2445.00,0.0143
2444.00,0.0143
2443.00,0.0143
2442.00,0.0143
2441.00,0.0143
2440.00,0.0143
2439.00,0.0143
2438.00,0.0143
2437.00,0.0143
2436.00,0.0143
2435.00,0.0143
2434.00,0.0143
2433.00,0.0143
2432.00,0.0143
2431.00,0.0143
2430.00,0.0143
2429.00,0.0143
2428.00,0.0143
2427.00,0.0143
2426.00,0.0143
2425.00,0.0143
2424.00,0.0143
2423.00,0.0143
2422.00,0.0143
2421.00,0.0143
2420.00,0.0143
2419.00,0.0143
2418.00,0.0143
2417.00,0.0143
2416.00,0.0143
2415.00,0.0143
2414.00,0.0143
2413.00,0.0143
2412.00,0.0143
2411.00,0.0143
2410.00,0.0143
2409.00,0.0143
2408.00,0.0143
2407.00,0.0143
2406.00,0.0143
2405.00,0.0143
2404.00,0.0143
2403.00,0.0143
2402.00,0.0143
2401.00,0.0143
2400.00,0.0143
2399.00,0.0143
2398.00,0.0143
2397.00,0.0143
2396.00,0.0143
2395.00,0.0143
2394.00,0.0143
2393.00,0.0143
2392.00,0.0143
2391.00,0.0143
2390.00,0.0143
2389.00,0.0143
2388.00,0.0143
2387.00,0.0143
2386.00,0.0144
2385.00,0.0144
2384.00,0.0144
2383.00,0.0144
2382.00,0.0144
2381.00,0.0144
2380.00,0.0143
2379.00,0.0143
2378.00,0.0143
2377.00,0.0143
2376.00,0.0143
2375.00,0.0144
2374.00,0.0144
2373.00,0.0144
2372.00,0.0145
2371.00,0.0145
2370.00,0.0145
2369.00,0.0145
2368.00,0.0145
2367.00,0.0145
2366.00,0.0145
2365.00,0.0145
2364.00,0.0145
2363.00,0.0146
2362.00,0.0146
2361.00,0.0146
2360.00,0.0147
2359.00,0.0147
2358.00,0.0147
2357.00,0.0147
2356.00,0.0147
2355.00,0.0146
2354.00,0.0146
2353.00,0.0145
2352.00,0.0144
2351.00,0.0145
2350.00,0.0146
2349.00,0.0148
2348.00,0.0149
2347.00,0.0148
2346.00,0.0147
2345.00,0.0147
2344.00,0.0147
2343.00,0.0149
2342.00,0.0149
2341.00,0.0149
2340.00,0.0149
2339.00,0.0149
2338.00,0.0149
2337.00,0.0149
2336.00,0.0149
2335.00,0.0149
2334.00,0.0149
2333.00,0.0148
2332.00,0.0149
2331.00,0.0149
2330.00,0.0149
2329.00,0.0150
2328.00,0.0150
2327.00,0.0150
2326.00,0.0150
2325.00,0.0150
2324.00,0.0150
2323.00,0.0150
2322.00,0.0150
2321.00,0.0151
2320.00,0.0151
2319.00,0.0151
2318.00,0.0151
2317.00,0.0150
2316.00,0.0149
2315.00,0.0149
2314.00,0.0149
2313.00,0.0149
2312.00,0.0149
2311.00,0.0149
2310.00,0.0150
2309.00,0.0150
2308.00,0.0150
2307.00,0.0150
2306.00,0.0149
2305.00,0.0149
2304.00,0.0148
2303.00,0.0148
2302.00,0.0147
2301.00,0.0147
2300.00,0.0147
2299.00,0.0147
2298.00,0.0146
2297.00,0.0146
2296.00,0.0146
2295.00,0.0145
2294.00,0.0145
2293.00,0.0145
2292.00,0.0144
2291.00,0.0144
2290.00,0.0144
2289.00,0.0144
2288.00,0.0144
2287.00,0.0144
2286.00,0.0144
2285.00,0.0144
2284.00,0.0143
2283.00,0.0143
2282.00,0.0143
2281.00,0.0143
2280.00,0.0143
2279.00,0.0142
2278.00,0.0142
2277.00,0.0142
2276.00,0.0142
2275.00,0.0142
2274.00,0.0142
2273.00,0.0142
2272.00,0.0142
2271.00,0.0142
2270.00,0.0142
2269.00,0.0142
2268.00,0.0142
2267.00,0.0143
2266.00,0.0143
2265.00,0.0143
2264.00,0.0143
2263.00,0.0143
2262.00,0.0143
2261.00,0.0143
2260.00,0.0143
2259.00,0.0143
2258.00,0.0143
2257.00,0.0143
2256.00,0.0143
2255.00,0.0143
2254.00,0.0143
2253.00,0.0143
2252.00,0.0143
2251.00,0.0143
2250.00,0.0143
2249.00,0.0143
2248.00,0.0143
2247.00,0.0143
2246.00,0.0143
2245.00,0.0143
2244.00,0.0143
2243.00,0.0143
2242.00,0.0143
2241.00,0.0143
2240.00,0.0143
2239.00,0.0143
2238.00,0.0142
2237.00,0.0142
2236.00,0.0142
2235.00,0.0142
2234.00,0.0142
2233.00,0.0143
2232.00,0.0143
2231.00,0.0143
2230.00,0.0143
2229.00,0.0143
2228.00,0.0143
2227.00,0.0142
2226.00,0.0142
2225.00,0.0142
2224.00,0.0142
2223.00,0.0142
2222.00,0.0142
2221.00,0.0142
2220.00,0.0142
2219.00,0.0142
2218.00,0.0142
2217.00,0.0142
2216.00,0.0142
2215.00,0.0142
2214.00,0.0142
2213.00,0.0142
2212.00,0.0142
2211.00,0.0142
2210.00,0.0142
2209.00,0.0142
2208.00,0.0143
2207.00,0.0143
2206.00,0.0143
2205.00,0.0143
2204.00,0.0143
2203.00,0.0143
2202.00,0.0143
2201.00,0.0143
2200.00,0.0143
2199.00,0.0143
2198.00,0.0143
2197.00,0.0143
2196.00,0.0143
2195.00,0.0143
2194.00,0.0143
2193.00,0.0143
2192.00,0.0143
2191.00,0.0143
2190.00,0.0143
2189.00,0.0143
2188.00,0.0143
2187.00,0.0143
2186.00,0.0143
2185.00,0.0143
2184.00,0.0143
2183.00,0.0143
2182.00,0.0143
2181.00,0.0143
2180.00,0.0143
2179.00,0.0143
2178.00,0.0143
2177.00,0.0143
2176.00,0.0143
2175.00,0.0143
2174.00,0.0143
2173.00,0.0143
2172.00,0.0143
2171.00,0.0143
2170.00,0.0143
2169.00,0.0143
2168.00,0.0143
2167.00,0.0143
2166.00,0.0143
2165.00,0.0143
2164.00,0.0143
2163.00,0.0143
2162.00,0.0143
2161.00,0.0143
2160.00,0.0143
2159.00,0.0143
2158.00,0.0143
2157.00,0.0143
2156.00,0.0143
2155.00,0.0143
2154.00,0.0143
2153.00,0.0143
2152.00,0.0143
2151.00,0.0143
2150.00,0.0143
2149.00,0.0143
2148.00,0.0143
2147.00,0.0143
2146.00,0.0143
2145.00,0.0143
2144.00,0.0143
2143.00,0.0143
2142.00,0.0143
2141.00,0.0143
2140.00,0.0143
2139.00,0.0144
2138.00,0.0144
2137.00,0.0144
2136.00,0.0144
2135.00,0.0144
2134.00,0.0144
2133.00,0.0144
2132.00,0.0144
2131.00,0.0144
2130.00,0.0144
2129.00,0.0144
2128.00,0.0144
2127.00,0.0143
2126.00,0.0143
2125.00,0.0143
2124.00,0.0143
2123.00,0.0143
2122.00,0.0143
2121.00,0.0143
2120.00,0.0143
2119.00,0.0143
2118.00,0.0143
2117.00,0.0143
2116.00,0.0143
2115.00,0.0143
2114.00,0.0142
2113.00,0.0142
2112.00,0.0142
2111.00,0.0142
2110.00,0.0142
2109.00,0.0142
2108.00,0.0142
2107.00,0.0142
2106.00,0.0142
2105.00,0.0142
2104.00,0.0142
2103.00,0.0142
2102.00,0.0142
2101.00,0.0142
2100.00,0.0142
2099.00,0.0142
2098.00,0.0142
2097.00,0.0142
2096.00,0.0143
2095.00,0.0143
2094.00,0.0143
2093.00,0.0143
2092.00,0.0143
2091.00,0.0143
2090.00,0.0143
2089.00,0.0143
2088.00,0.0143
2087.00,0.0143
2086.00,0.0143
2085.00,0.0143
2084.00,0.0143
2083.00,0.0143
2082.00,0.0143
2081.00,0.0143
2080.00,0.0143
2079.00,0.0143
2078.00,0.0143
2077.00,0.0143
2076.00,0.0143
2075.00,0.0143
2074.00,0.0143
2073.00,0.0143
2072.00,0.0143
2071.00,0.0143
2070.00,0.0143
2069.00,0.0143
2068.00,0.0143
2067.00,0.0143
2066.00,0.0143
2065.00,0.0143
2064.00,0.0143
2063.00,0.0143
2062.00,0.0143
2061.00,0.0143
2060.00,0.0143
2059.00,0.0143
2058.00,0.0143
2057.00,0.0143
2056.00,0.0143
2055.00,0.0143
2054.00,0.0143
2053.00,0.0143
2052.00,0.0143
2051.00,0.0143
2050.00,0.0143
2049.00,0.0143
2048.00,0.0143
2047.00,0.0143
2046.00,0.0143
2045.00,0.0143
2044.00,0.0144
2043.00,0.0144
2042.00,0.0144
2041.00,0.0144
2040.00,0.0144
2039.00,0.0144
2038.00,0.0144
2037.00,0.0144
2036.00,0.0144
2035.00,0.0144
2034.00,0.0144
2033.00,0.0144
2032.00,0.0144
2031.00,0.0144
2030.00,0.0144
2029.00,0.0144
2028.00,0.0144
2027.00,0.0144
2026.00,0.0144
2025.00,0.0144
2024.00,0.0144
2023.00,0.0144
2022.00,0.0144
2021.00,0.0144
2020.00,0.0144
2019.00,0.0144
2018.00,0.0144
2017.00,0.0144
2016.00,0.0144
2015.00,0.0145
2014.00,0.0145
2013.00,0.0145
2012.00,0.0145
2011.00,0.0145
2010.00,0.0145
2009.00,0.0145
2008.00,0.0145
2007.00,0.0145
2006.00,0.0145
2005.00,0.0145
2004.00,0.0145
2003.00,0.0145
2002.00,0.0145
2001.00,0.0145
2000.00,0.0145
1999.00,0.0145
1998.00,0.0145
1997.00,0.0145
1996.00,0.0145
1995.00,0.0145
1994.00,0.0145
1993.00,0.0145
1992.00,0.0145
1991.00,0.0145
1990.00,0.0145
1989.00,0.0145
1988.00,0.0145
1987.00,0.0145
1986.00,0.0145
1985.00,0.0145
1984.00,0.0145
1983.00,0.0145
1982.00,0.0145
1981.00,0.0145
1980.00,0.0145
1979.00,0.0145
1978.00,0.0145
1977.00,0.0145
1976.00,0.0145
1975.00,0.0145
1974.00,0.0145
1973.00,0.0145
1972.00,0.0145
1971.00,0.0145
1970.00,0.0145
1969.00,0.0145
1968.00,0.0145
1967.00,0.0145
1966.00,0.0145
1965.00,0.0146
1964.00,0.0146
1963.00,0.0146
1962.00,0.0146
1961.00,0.0146
1960.00,0.0146
1959.00,0.0146
1958.00,0.0145
1957.00,0.0145
1956.00,0.0145
1955.00,0.0145
1954.00,0.0146
1953.00,0.0146
1952.00,0.0146
1951.00,0.0146
1950.00,0.0146
1949.00,0.0146
1948.00,0.0146
1947.00,0.0146
1946.00,0.0146
1945.00,0.0145
1944.00,0.0145
1943.00,0.0146
1942.00,0.0146
1941.00,0.0146
1940.00,0.0146
1939.00,0.0146
1938.00,0.0146
1937.00,0.0146
1936.00,0.0146
1935.00,0.0146
1934.00,0.0146
1933.00,0.0146
1932.00,0.0146
1931.00,0.0146
1930.00,0.0146
1929.00,0.0146
1928.00,0.0146
1927.00,0.0146
1926.00,0.0146
1925.00,0.0146
1924.00,0.0146
1923.00,0.0146
1922.00,0.0146
1921.00,0.0147
1920.00,0.0147
1919.00,0.0147
1918.00,0.0147
1917.00,0.0147
1916.00,0.0147
1915.00,0.0147
1914.00,0.0147
1913.00,0.0147
1912.00,0.0146
1911.00,0.0146
1910.00,0.0146
1909.00,0.0146
1908.00,0.0147
1907.00,0.0147
1906.00,0.0147
1905.00,0.0147
1904.00,0.0147
1903.00,0.0147
1902.00,0.0147
1901.00,0.0147
1900.00,0.0147
1899.00,0.0147
1898.00,0.0147
1897.00,0.0147
1896.00,0.0146
1895.00,0.0147
1894.00,0.0147
1893.00,0.0147
1892.00,0.0147
1891.00,0.0147
1890.00,0.0147
1889.00,0.0147
1888.00,0.0147
1887.00,0.0147
1886.00,0.0147
1885.00,0.0147
1884.00,0.0147
1883.00,0.0147
1882.00,0.0147
1881.00,0.0147
1880.00,0.0147
1879.00,0.0147
1878.00,0.0147
1877.00,0.0147
1876.00,0.0147
1875.00,0.0147
1874.00,0.0147
1873.00,0.0147
1872.00,0.0147
1871.00,0.0147
1870.00,0.0147
1869.00,0.0147
1868.00,0.0147
1867.00,0.0147
1866.00,0.0148
1865.00,0.0148
1864.00,0.0147
1863.00,0.0147
1862.00,0.0147
1861.00,0.0147
1860.00,0.0147
1859.00,0.0147
1858.00,0.0147
1857.00,0.0147
1856.00,0.0147
1855.00,0.0147
1854.00,0.0147
1853.00,0.0147
1852.00,0.0147
1851.00,0.0148
1850.00,0.0148
1849.00,0.0147
1848.00,0.0147
1847.00,0.0147
1846.00,0.0148
1845.00,0.0148
1844.00,0.0148
1843.00,0.0148
1842.00,0.0148
1841.00,0.0148
1840.00,0.0148
1839.00,0.0148
1838.00,0.0148
1837.00,0.0148
1836.00,0.0148
1835.00,0.0148
1834.00,0.0148
1833.00,0.0148
1832.00,0.0147
1831.00,0.0147
1830.00,0.0147
1829.00,0.0148
1828.00,0.0148
1827.00,0.0148
1826.00,0.0148
1825.00,0.0148
1824.00,0.0148
1823.00,0.0148
1822.00,0.0148
1821.00,0.0148
1820.00,0.0148
1819.00,0.0148
1818.00,0.0148
1817.00,0.0148
1816.00,0.0148
1815.00,0.0148
1814.00,0.0148
1813.00,0.0148
1812.00,0.0148
1811.00,0.0148
1810.00,0.0148
1809.00,0.0148
1808.00,0.0148
1807.00,0.0148
1806.00,0.0148
1805.00,0.0148
1804.00,0.0148
1803.00,0.0148
1802.00,0.0148
1801.00,0.0148
1800.00,0.0148
1799.00,0.0148
1798.00,0.0148
1797.00,0.0148
1796.00,0.0148
1795.00,0.0148
1794.00,0.0149
1793.00,0.0149
1792.00,0.0149
1791.00,0.0148
1790.00,0.0149
1789.00,0.0149
1788.00,0.0148
1787.00,0.0148
1786.00,0.0148
1785.00,0.0148
1784.00,0.0148
1783.00,0.0148
1782.00,0.0148
1781.00,0.0148
1780.00,0.0148
1779.00,0.0148
1778.00,0.0148
1777.00,0.0148
1776.00,0.0148
1775.00,0.0148
1774.00,0.0148
1773.00,0.0148
1772.00,0.0148
1771.00,0.0148
1770.00,0.0149
1769.00,0.0149
1768.00,0.0149
1767.00,0.0149
1766.00,0.0149
1765.00,0.0149
1764.00,0.0148
1763.00,0.0148
1762.00,0.0148
1761.00,0.0148
1760.00,0.0148
1759.00,0.0148
1758.00,0.0148
1757.00,0.0149
1756.00,0.0149
1755.00,0.0149
1754.00,0.0149
1753.00,0.0150
1752.00,0.0150
1751.00,0.0150
1750.00,0.0149
1749.00,0.0149
1748.00,0.0149
1747.00,0.0148
1746.00,0.0148
1745.00,0.0148
1744.00,0.0148
1743.00,0.0148
1742.00,0.0148
1741.00,0.0148
1740.00,0.0148
1739.00,0.0148
1738.00,0.0148
1737.00,0.0148
1736.00,0.0149
1735.00,0.0149
1734.00,0.0149
1733.00,0.0148
1732.00,0.0148
1731.00,0.0147
1730.00,0.0147
1729.00,0.0147
1728.00,0.0147
1727.00,0.0147
1726.00,0.0147
1725.00,0.0147
1724.00,0.0147
1723.00,0.0147
1722.00,0.0147
1721.00,0.0147
1720.00,0.0147
1719.00,0.0147
1718.00,0.0148
1717.00,0.0148
1716.00,0.0147
1715.00,0.0147
1714.00,0.0148
1713.00,0.0147
1712.00,0.0147
1711.00,0.0147
1710.00,0.0147
1709.00,0.0147
1708.00,0.0146
1707.00,0.0146
1706.00,0.0146
1705.00,0.0146
1704.00,0.0146
1703.00,0.0147
1702.00,0.0147
1701.00,0.0147
1700.00,0.0146
1699.00,0.0146
1698.00,0.0147
1697.00,0.0147
1696.00,0.0147
1695.00,0.0146
1694.00,0.0146
1693.00,0.0146
1692.00,0.0146
1691.00,0.0146
1690.00,0.0146
1689.00,0.0146
1688.00,0.0146
1687.00,0.0146
1686.00,0.0146
1685.00,0.0146
1684.00,0.0146
1683.00,0.0146
1682.00,0.0145
1681.00,0.0146
1680.00,0.0146
1679.00,0.0146
1678.00,0.0146
1677.00,0.0146
1676.00,0.0146
1675.00,0.0145
1674.00,0.0145
1673.00,0.0145
1672.00,0.0145
1671.00,0.0145
1670.00,0.0145
1669.00,0.0144
1668.00,0.0145
1667.00,0.0144
1666.00,0.0144
1665.00,0.0144
1664.00,0.0144
1663.00,0.0144
1662.00,0.0144
1661.00,0.0144
1660.00,0.0144
1659.00,0.0144
1658.00,0.0143
1657.00,0.0143
1656.00,0.0143
1655.00,0.0142
1654.00,0.0142
1653.00,0.0142
1652.00,0.0142
1651.00,0.0142
1650.00,0.0143
1649.00,0.0143
1648.00,0.0144
1647.00,0.0144
1646.00,0.0144
1645.00,0.0143
1644.00,0.0143
1643.00,0.0143
1642.00,0.0143
1641.00,0.0143
1640.00,0.0143
1639.00,0.0143
1638.00,0.0143
1637.00,0.0143
1636.00,0.0143
1635.00,0.0143
1634.00,0.0143
1633.00,0.0143
1632.00,0.0143
1631.00,0.0144
1630.00,0.0144
1629.00,0.0143
1628.00,0.0143
1627.00,0.0144
1626.00,0.0144
1625.00,0.0144
1624.00,0.0144
1623.00,0.0144
1622.00,0.0144
1621.00,0.0144
1620.00,0.0144
1619.00,0.0144
1618.00,0.0144
1617.00,0.0144
1616.00,0.0144
1615.00,0.0144
1614.00,0.0145
1613.00,0.0145
1612.00,0.0145
1611.00,0.0145
1610.00,0.0145
1609.00,0.0145
1608.00,0.0145
1607.00,0.0145
1606.00,0.0145
1605.00,0.0145
1604.00,0.0145
1603.00,0.0145
1602.00,0.0145
1601.00,0.0146
1600.00,0.0146
1599.00,0.0146
1598.00,0.0146
1597.00,0.0146
1596.00,0.0146
1595.00,0.0146
1594.00,0.0146
1593.00,0.0146
1592.00,0.0146
1591.00,0.0146
1590.00,0.0146
1589.00,0.0146
1588.00,0.0146
1587.00,0.0146
1586.00,0.0146
1585.00,0.0146
1584.00,0.0146
1583.00,0.0146
1582.00,0.0146
1581.00,0.0146
1580.00,0.0146
1579.00,0.0146
1578.00,0.0145
1577.00,0.0145
1576.00,0.0146
1575.00,0.0146
1574.00,0.0146
1573.00,0.0146
1572.00,0.0146
1571.00,0.0146
1570.00,0.0146
1569.00,0.0146
1568.00,0.0147
1567.00,0.0147
1566.00,0.0147
1565.00,0.0147
1564.00,0.0147
1563.00,0.0146
1562.00,0.0146
1561.00,0.0146
1560.00,0.0146
1559.00,0.0147
1558.00,0.0147
1557.00,0.0147
1556.00,0.0148
1555.00,0.0148
1554.00,0.0148
1553.00,0.0148
1552.00,0.0148
1551.00,0.0148
1550.00,0.0147
1549.00,0.0148
1548.00,0.0148
1547.00,0.0148
1546.00,0.0148
1545.00,0.0147
1544.00,0.0147
1543.00,0.0147
1542.00,0.0147
1541.00,0.0147
1540.00,0.0147
1539.00,0.0147
1538.00,0.0147
1537.00,0.0147
1536.00,0.0148
1535.00,0.0148
1534.00,0.0148
1533.00,0.0148
1532.00,0.0148
1531.00,0.0148
1530.00,0.0148
1529.00,0.0148
1528.00,0.0148
1527.00,0.0148
1526.00,0.0148
1525.00,0.0148
1524.00,0.0148
1523.00,0.0148
1522.00,0.0148
1521.00,0.0148
1520.00,0.0148
1519.00,0.0148
1518.00,0.0148
1517.00,0.0148
1516.00,0.0148
1515.00,0.0149
1514.00,0.0149
1513.00,0.0149
1512.00,0.0148
1511.00,0.0148
1510.00,0.0148
1509.00,0.0148
1508.00,0.0148
1507.00,0.0148
1506.00,0.0148
1505.00,0.0148
1504.00,0.0147
1503.00,0.0147
1502.00,0.0148
1501.00,0.0147
1500.00,0.0147
1499.00,0.0147
1498.00,0.0147
1497.00,0.0147
1496.00,0.0146
1495.00,0.0146
1494.00,0.0146
1493.00,0.0146
1492.00,0.0146
1491.00,0.0146
1490.00,0.0146
1489.00,0.0146
1488.00,0.0146
1487.00,0.0146
1486.00,0.0146
1485.00,0.0146
1484.00,0.0146
1483.00,0.0146
1482.00,0.0146
1481.00,0.0146
1480.00,0.0147
1479.00,0.0147
1478.00,0.0147
1477.00,0.0147
1476.00,0.0147
1475.00,0.0148
1474.00,0.0148
1473.00,0.0148
1472.00,0.0148
1471.00,0.0147
1470.00,0.0147
1469.00,0.0147
1468.00,0.0147
1467.00,0.0147
1466.00,0.0147
1465.00,0.0147
1464.00,0.0147
1463.00,0.0147
1462.00,0.0147
1461.00,0.0147
1460.00,0.0146
1459.00,0.0146
1458.00,0.0146
1457.00,0.0147
1456.00,0.0147
1455.00,0.0146
1454.00,0.0146
1453.00,0.0146
1452.00,0.0146
1451.00,0.0145
1450.00,0.0145
1449.00,0.0145
1448.00,0.0145
1447.00,0.0145
1446.00,0.0145
1445.00,0.0146
1444.00,0.0146
1443.00,0.0145
1442.00,0.0145
1441.00,0.0146
1440.00,0.0146
1439.00,0.0146
1438.00,0.0146
1437.00,0.0147
1436.00,0.0146
1435.00,0.0146
1434.00,0.0146
1433.00,0.0147
1432.00,0.0147
1431.00,0.0146
1430.00,0.0146
1429.00,0.0146
1428.00,0.0146
1427.00,0.0146
1426.00,0.0146
1425.00,0.0146
1424.00,0.0146
1423.00,0.0146
1422.00,0.0146
1421.00,0.0146
1420.00,0.0146
1419.00,0.0146
1418.00,0.0146
1417.00,0.0146
1416.00,0.0146
1415.00,0.0145
1414.00,0.0145
1413.00,0.0145
1412.00,0.0145
1411.00,0.0144
1410.00,0.0144
1409.00,0.0144
1408.00,0.0144
1407.00,0.0144
1406.00,0.0143
1405.00,0.0144
1404.00,0.0144
1403.00,0.0144
1402.00,0.0144
1401.00,0.0144
1400.00,0.0144
1399.00,0.0144
1398.00,0.0144
1397.00,0.0144
1396.00,0.0144
1395.00,0.0143
1394.00,0.0143
1393.00,0.0144
1392.00,0.0144
1391.00,0.0144
1390.00,0.0144
1389.00,0.0144
1388.00,0.0144
1387.00,0.0144
1386.00,0.0144
1385.00,0.0144
1384.00,0.0144
1383.00,0.0144
1382.00,0.0144
1381.00,0.0144
1380.00,0.0144
1379.00,0.0144
1378.00,0.0144
1377.00,0.0144
1376.00,0.0144
1375.00,0.0144
1374.00,0.0144
1373.00,0.0144
1372.00,0.0145
1371.00,0.0145
1370.00,0.0145
1369.00,0.0145
1368.00,0.0145
1367.00,0.0145
1366.00,0.0145
1365.00,0.0145
1364.00,0.0145
1363.00,0.0145
1362.00,0.0145
1361.00,0.0145
1360.00,0.0145
1359.00,0.0145
1358.00,0.0145
1357.00,0.0145
1356.00,0.0145
1355.00,0.0145
1354.00,0.0145
1353.00,0.0145
1352.00,0.0145
1351.00,0.0145
1350.00,0.0145
1349.00,0.0145
1348.00,0.0145
1347.00,0.0145
1346.00,0.0145
1345.00,0.0145
1344.00,0.0145
1343.00,0.0145
1342.00,0.0144
1341.00,0.0144
1340.00,0.0144
1339.00,0.0144
1338.00,0.0144
1337.00,0.0144
1336.00,0.0144
1335.00,0.0145
1334.00,0.0145
1333.00,0.0145
1332.00,0.0145
1331.00,0.0144
1330.00,0.0144
1329.00,0.0145
1328.00,0.0145
1327.00,0.0145
1326.00,0.0144
1325.00,0.0144
1324.00,0.0145
1323.00,0.0144
1322.00,0.0144
1321.00,0.0144
1320.00,0.0144
1319.00,0.0144
1318.00,0.0144
1317.00,0.0145
1316.00,0.0145
1315.00,0.0144
1314.00,0.0144
1313.00,0.0144
1312.00,0.0144
1311.00,0.0144
1310.00,0.0144
1309.00,0.0144
1308.00,0.0144
1307.00,0.0144
1306.00,0.0144
1305.00,0.0144
1304.00,0.0144
1303.00,0.0144
1302.00,0.0144
1301.00,0.0144
1300.00,0.0144
1299.00,0.0144
1298.00,0.0144
1297.00,0.0144
1296.00,0.0143
1295.00,0.0143
1294.00,0.0143
1293.00,0.0144
1292.00,0.0144
1291.00,0.0144
1290.00,0.0144
1289.00,0.0144
1288.00,0.0143
1287.00,0.0143
1286.00,0.0143
1285.00,0.0143
1284.00,0.0143
1283.00,0.0143
1282.00,0.0143
1281.00,0.0143
1280.00,0.0143
1279.00,0.0143
1278.00,0.0143
1277.00,0.0143
1276.00,0.0143
1275.00,0.0143
1274.00,0.0143
1273.00,0.0143
1272.00,0.0143
1271.00,0.0143
1270.00,0.0143
1269.00,0.0143
1268.00,0.0143
1267.00,0.0143
1266.00,0.0142
1265.00,0.0142
1264.00,0.0142
1263.00,0.0142
1262.00,0.0142
1261.00,0.0141
1260.00,0.0141
1259.00,0.0141
1258.00,0.0141
1257.00,0.0141
1256.00,0.0141
1255.00,0.0141
1254.00,0.0141
1253.00,0.0141
1252.00,0.0141
1251.00,0.0140
1250.00,0.0140
1249.00,0.0140
1248.00,0.0141
1247.00,0.0141
1246.00,0.0141
1245.00,0.0141
1244.00,0.0141
1243.00,0.0140
1242.00,0.0140
1241.00,0.0140
1240.00,0.0141
1239.00,0.0141
1238.00,0.0141
1237.00,0.0141
1236.00,0.0141
1235.00,0.0141
1234.00,0.0141
1233.00,0.0141
1232.00,0.0141
1231.00,0.0141
1230.00,0.0141
1229.00,0.0141
1228.00,0.0141
1227.00,0.0141
1226.00,0.0141
1225.00,0.0141
1224.00,0.0141
1223.00,0.0141
1222.00,0.0141
1221.00,0.0141
1220.00,0.0141
1219.00,0.0141
1218.00,0.0141
1217.00,0.0141
1216.00,0.0141
1215.00,0.0141
1214.00,0.0141
1213.00,0.0141
1212.00,0.0142
1211.00,0.0142
1210.00,0.0141
1209.00,0.0142
1208.00,0.0142
1207.00,0.0142
1206.00,0.0142
1205.00,0.0142
1204.00,0.0142
1203.00,0.0141
1202.00,0.0141
1201.00,0.0141
1200.00,0.0141
1199.00,0.0141
1198.00,0.0141
1197.00,0.0141
1196.00,0.0141
1195.00,0.0141
1194.00,0.0141
1193.00,0.0141
1192.00,0.0141
1191.00,0.0141
1190.00,0.0141
1189.00,0.0141
1188.00,0.0141
1187.00,0.0141
1186.00,0.0141
1185.00,0.0141
1184.00,0.0141
1183.00,0.0141
1182.00,0.0141
1181.00,0.0141
1180.00,0.0141
1179.00,0.0141
1178.00,0.0141
1177.00,0.0141
1176.00,0.0141
1175.00,0.0141
1174.00,0.0141
1173.00,0.0141
1172.00,0.0141
1171.00,0.0141
1170.00,0.0141
1169.00,0.0141
1168.00,0.0141
1167.00,0.0141
1166.00,0.0141
1165.00,0.0141
1164.00,0.0141
1163.00,0.0141
1162.00,0.0141
1161.00,0.0141
1160.00,0.0141
1159.00,0.0141
1158.00,0.0141
1157.00,0.0141
1156.00,0.0141
1155.00,0.0140
1154.00,0.0140
1153.00,0.0140
1152.00,0.0140
1151.00,0.0140
1150.00,0.0141
1149.00,0.0141
1148.00,0.0141
1147.00,0.0140
1146.00,0.0140
1145.00,0.0140
1144.00,0.0140
1143.00,0.0140
1142.00,0.0140
1141.00,0.0140
1140.00,0.0140
1139.00,0.0140
1138.00,0.0140
1137.00,0.0140
1136.00,0.0140
1135.00,0.0140
1134.00,0.0140
1133.00,0.0140
1132.00,0.0140
1131.00,0.0140
1130.00,0.0140
1129.00,0.0139
1128.00,0.0139
1127.00,0.0139
1126.00,0.0139
1125.00,0.0139
1124.00,0.0139
1123.00,0.0139
1122.00,0.0139
1121.00,0.0139
1120.00,0.0139
1119.00,0.0139
1118.00,0.0139
1117.00,0.0139
1116.00,0.0139
1115.00,0.0139
1114.00,0.0139
1113.00,0.0139
1112.00,0.0139
1111.00,0.0138
1110.00,0.0138
1109.00,0.0138
1108.00,0.0138
1107.00,0.0138
1106.00,0.0138
1105.00,0.0138
1104.00,0.0137
1103.00,0.0137
1102.00,0.0137
1101.00,0.0137
1100.00,0.0137
1099.00,0.0137
1098.00,0.0137
1097.00,0.0137
1096.00,0.0137
1095.00,0.0137
1094.00,0.0137
1093.00,0.0136
1092.00,0.0136
1091.00,0.0135
1090.00,0.0135
1089.00,0.0135
1088.00,0.0134
1087.00,0.0134
1086.00,0.0134
1085.00,0.0133
1084.00,0.0133
1083.00,0.0132
1082.00,0.0132
1081.00,0.0132
1080.00,0.0132
1079.00,0.0131
1078.00,0.0131
1077.00,0.0131
1076.00,0.0131
1075.00,0.0131
1074.00,0.0131
1073.00,0.0131
1072.00,0.0131
1071.00,0.0131
1070.00,0.0131
1069.00,0.0131
1068.00,0.0131
1067.00,0.0131
1066.00,0.0131
1065.00,0.0131
1064.00,0.0131
1063.00,0.0132
1062.00,0.0132
1061.00,0.0132
1060.00,0.0132
1059.00,0.0132
1058.00,0.0131
1057.00,0.0131
1056.00,0.0131
1055.00,0.0131
1054.00,0.0131
1053.00,0.0131
1052.00,0.0131
1051.00,0.0131
1050.00,0.0131
1049.00,0.0131
1048.00,0.0131
1047.00,0.0132
1046.00,0.0132
1045.00,0.0132
1044.00,0.0133
1043.00,0.0133
1042.00,0.0133
1041.00,0.0134
1040.00,0.0134
1039.00,0.0134
1038.00,0.0134
1037.00,0.0135
1036.00,0.0135
1035.00,0.0136
1034.00,0.0136
1033.00,0.0137
1032.00,0.0137
1031.00,0.0137
1030.00,0.0137
1029.00,0.0137
1028.00,0.0137
1027.00,0.0137
1026.00,0.0138
1025.00,0.0138
1024.00,0.0139
1023.00,0.0139
1022.00,0.0139
1021.00,0.0139
1020.00,0.0139
1019.00,0.0140
1018.00,0.0140
1017.00,0.0140
1016.00,0.0140
1015.00,0.0140
1014.00,0.0141
1013.00,0.0141
1012.00,0.0141
1011.00,0.0141
1010.00,0.0141
1009.00,0.0142
1008.00,0.0142
1007.00,0.0142
1006.00,0.0142
1005.00,0.0142
1004.00,0.0143
1003.00,0.0143
1002.00,0.0143
1001.00,0.0143
1000.00,0.0143
999.00,0.0143
998.00,0.0144
997.00,0.0144
996.00,0.0144
995.00,0.0144
994.00,0.0144
993.00,0.0144
992.00,0.0144
991.00,0.0144
990.00,0.0144
989.00,0.0144
988.00,0.0144
987.00,0.0144
986.00,0.0144
985.00,0.0144
984.00,0.0144
983.00,0.0144
982.00,0.0144
981.00,0.0144
980.00,0.0144
979.00,0.0144
978.00,0.0144
977.00,0.0144
976.00,0.0145
975.00,0.0145
974.00,0.0145
973.00,0.0145
972.00,0.0145
971.00,0.0145
970.00,0.0145
969.00,0.0145
968.00,0.0145
967.00,0.0145
966.00,0.0145
965.00,0.0145
964.00,0.0145
963.00,0.0145
962.00,0.0145
961.00,0.0145
960.00,0.0145
959.00,0.0145
958.00,0.0145
957.00,0.0146
956.00,0.0146
955.00,0.0145
954.00,0.0145
953.00,0.0145
952.00,0.0145
951.00,0.0145
950.00,0.0146
949.00,0.0146
948.00,0.0146
947.00,0.0145
946.00,0.0145
945.00,0.0145
944.00,0.0145
943.00,0.0145
942.00,0.0145
941.00,0.0145
940.00,0.0145
939.00,0.0145
938.00,0.0145
937.00,0.0145
936.00,0.0145
935.00,0.0145
934.00,0.0145
933.00,0.0145
932.00,0.0145
931.00,0.0145
930.00,0.0145
929.00,0.0145
928.00,0.0145
927.00,0.0145
926.00,0.0145
925.00,0.0145
924.00,0.0145
923.00,0.0145
922.00,0.0145
921.00,0.0145
920.00,0.0145
919.00,0.0145
918.00,0.0145
917.00,0.0145
916.00,0.0145
915.00,0.0145
914.00,0.0145
913.00,0.0145
912.00,0.0145
911.00,0.0144
910.00,0.0144
909.00,0.0144
908.00,0.0144
907.00,0.0144
906.00,0.0144
905.00,0.0144
904.00,0.0144
903.00,0.0144
902.00,0.0144
901.00,0.0144
900.00,0.0144
899.00,0.0144
898.00,0.0143
897.00,0.0143
896.00,0.0143
895.00,0.0143
894.00,0.0143
893.00,0.0143
892.00,0.0143
891.00,0.0143
890.00,0.0143
889.00,0.0143
888.00,0.0143
887.00,0.0143
886.00,0.0143
885.00,0.0143
884.00,0.0143
883.00,0.0143
882.00,0.0143
881.00,0.0143
880.00,0.0143
879.00,0.0143
878.00,0.0143
877.00,0.0143
876.00,0.0143
875.00,0.0143
874.00,0.0143
873.00,0.0143
872.00,0.0143
871.00,0.0143
870.00,0.0143
869.00,0.0143
868.00,0.0143
867.00,0.0143
866.00,0.0143
865.00,0.0143
864.00,0.0143
863.00,0.0143
862.00,0.0143
861.00,0.0143
860.00,0.0143
859.00,0.0143
858.00,0.0143
857.00,0.0143
856.00,0.0143
855.00,0.0143
854.00,0.0143
853.00,0.0143
852.00,0.0143
851.00,0.0142
850.00,0.0142
849.00,0.0142
848.00,0.0142
847.00,0.0142
846.00,0.0142
845.00,0.0142
844.00,0.0142
843.00,0.0142
842.00,0.0142
841.00,0.0142
840.00,0.0142
839.00,0.0142
838.00,0.0142
837.00,0.0142
836.00,0.0142
835.00,0.0142
834.00,0.0142
833.00,0.0142
832.00,0.0142
831.00,0.0141
830.00,0.0141
829.00,0.0141
828.00,0.0141
827.00,0.0141
826.00,0.0141
825.00,0.0141
824.00,0.0140
823.00,0.0140
822.00,0.0140
821.00,0.0140
820.00,0.0140
819.00,0.0140
818.00,0.0140
817.00,0.0140
816.00,0.0140
815.00,0.0140
814.00,0.0140
813.00,0.0140
812.00,0.0140
811.00,0.0140
810.00,0.0140
809.00,0.0140
808.00,0.0140
807.00,0.0140
806.00,0.0140
805.00,0.0140
804.00,0.0140
803.00,0.0140
802.00,0.0139
801.00,0.0139
800.00,0.0139
799.00,0.0139
798.00,0.0139
797.00,0.0139
796.00,0.0139
795.00,0.0139
794.00,0.0139
793.00,0.0139
792.00,0.0139
791.00,0.0140
790.00,0.0140
789.00,0.0140
788.00,0.0140
787.00,0.0140
786.00,0.0140
785.00,0.0140
784.00,0.0140
783.00,0.0140
782.00,0.0140
781.00,0.0140
780.00,0.0140
779.00,0.0140
778.00,0.0140
777.00,0.0140
776.00,0.0140
775.00,0.0140
774.00,0.0140
773.00,0.0140
772.00,0.0140
771.00,0.0140
770.00,0.0139
769.00,0.0139
768.00,0.0139
767.00,0.0139
766.00,0.0139
765.00,0.0139
764.00,0.0139
763.00,0.0139
762.00,0.0139
761.00,0.0139
760.00,0.0139
759.00,0.0139
758.00,0.0139
757.00,0.0139
756.00,0.0139
755.00,0.0139
754.00,0.0138
753.00,0.0138
752.00,0.0138
751.00,0.0138
750.00,0.0138
749.00,0.0138
748.00,0.0138
747.00,0.0139
746.00,0.0139
745.00,0.0139
744.00,0.0138
743.00,0.0138
742.00,0.0138
741.00,0.0138
740.00,0.0138
739.00,0.0138
738.00,0.0138
737.00,0.0138
736.00,0.0138
735.00,0.0138
734.00,0.0138
733.00,0.0138
732.00,0.0138
731.00,0.0138
730.00,0.0138
729.00,0.0138
728.00,0.0138
727.00,0.0138
726.00,0.0138
725.00,0.0138
724.00,0.0138
723.00,0.0138
722.00,0.0138
721.00,0.0138
720.00,0.0138
719.00,0.0138
718.00,0.0138
717.00,0.0138
716.00,0.0137
715.00,0.0137
714.00,0.0137
713.00,0.0137
712.00,0.0137
711.00,0.0137
710.00,0.0137
709.00,0.0137
708.00,0.0137
707.00,0.0137
706.00,0.0137
705.00,0.0137
704.00,0.0136
703.00,0.0136
702.00,0.0136
701.00,0.0136
700.00,0.0136
699.00,0.0136
698.00,0.0136
697.00,0.0136
696.00,0.0135
695.00,0.0135
694.00,0.0135
693.00,0.0135
692.00,0.0135
691.00,0.0135
690.00,0.0135
689.00,0.0135
688.00,0.0134
687.00,0.0134
686.00,0.0133
685.00,0.0133
684.00,0.0133
683.00,0.0132
682.00,0.0132
681.00,0.0132
680.00,0.0132
679.00,0.0132
678.00,0.0132
677.00,0.0132
676.00,0.0132
675.00,0.0132
674.00,0.0132
673.00,0.0131
672.00,0.0129
671.00,0.0126
670.00,0.0122
669.00,0.0116
668.00,0.0113
667.00,0.0116
666.00,0.0120
665.00,0.0124
664.00,0.0128
663.00,0.0130
662.00,0.0130
661.00,0.0130
660.00,0.0130
659.00,0.0130
658.00,0.0129
657.00,0.0130
656.00,0.0130
655.00,0.0130
654.00,0.0130
653.00,0.0130
652.00,0.0130
651.00,0.0130
650.00,0.0130
649.00,0.0130
648.00,0.0130
647.00,0.0130
646.00,0.0130
645.00,0.0130
644.00,0.0130
643.00,0.0131
642.00,0.0131
641.00,0.0131
640.00,0.0131
639.00,0.0131
638.00,0.0131
637.00,0.0131
636.00,0.0131
635.00,0.0131
634.00,0.0130
633.00,0.0130
632.00,0.0130
631.00,0.0130
630.00,0.0129
629.00,0.0129
628.00,0.0129
627.00,0.0129
626.00,0.0129
625.00,0.0129
624.00,0.0129
623.00,0.0129
622.00,0.0128
621.00,0.0128
620.00,0.0127
619.00,0.0127
618.00,0.0127
617.00,0.0127
616.00,0.0127
615.00,0.0127
614.00,0.0127
613.00,0.0126
612.00,0.0126
611.00,0.0126
610.00,0.0126
609.00,0.0126
608.00,0.0126
607.00,0.0126
606.00,0.0126
605.00,0.0126
604.00,0.0126
603.00,0.0126
602.00,0.0126
601.00,0.0126
600.00,0.0126
599.00,0.0127
598.00,0.0127
597.00,0.0127
596.00,0.0127
595.00,0.0126
594.00,0.0126
593.00,0.0126
592.00,0.0126
591.00,0.0126
590.00,0.0126
589.00,0.0126
588.00,0.0126
587.00,0.0126
586.00,0.0126
585.00,0.0126
584.00,0.0126
583.00,0.0125
582.00,0.0125
581.00,0.0125
580.00,0.0125
579.00,0.0124
578.00,0.0124
577.00,0.0124
576.00,0.0125
575.00,0.0125
574.00,0.0124
573.00,0.0123
572.00,0.0123
571.00,0.0123
570.00,0.0122
569.00,0.0122
568.00,0.0122
567.00,0.0122
566.00,0.0122
565.00,0.0122
564.00,0.0122
563.00,0.0122
562.00,0.0122
561.00,0.0122
560.00,0.0122
559.00,0.0122
558.00,0.0121
557.00,0.0121
556.00,0.0122
555.00,0.0123
554.00,0.0123
553.00,0.0123
552.00,0.0123
551.00,0.0124
550.00,0.0123
549.00,0.0123
548.00,0.0123
547.00,0.0122
546.00,0.0122
545.00,0.0123
544.00,0.0123
543.00,0.0123
542.00,0.0123
541.00,0.0123
540.00,0.0123
539.00,0.0123
538.00,0.0123
537.00,0.0123
536.00,0.0124
535.00,0.0124
534.00,0.0124
533.00,0.0123
532.00,0.0124
531.00,0.0123
530.00,0.0123
529.00,0.0123
528.00,0.0123
527.00,0.0123
526.00,0.0123
525.00,0.0123
524.00,0.0123
523.00,0.0123
522.00,0.0123
521.00,0.0122
520.00,0.0122
519.00,0.0121
518.00,0.0121
517.00,0.0122
516.00,0.0122
515.00,0.0122
514.00,0.0122
513.00,0.0121
512.00,0.0122
511.00,0.0122
510.00,0.0122
509.00,0.0122
508.00,0.0123
507.00,0.0123
506.00,0.0122
505.00,0.0122
504.00,0.0122
503.00,0.0122
502.00,0.0122
501.00,0.0122
500.00,0.0122
