Created as New Dataset,Sample 030 By Analyst Date Friday, March 28 2025
cm-1,A
4000.00,0.0124
3999.00,0.0125
3998.00,0.0125
3997.00,0.0125
3996.00,0.0125
3995.00,0.0125
3994.00,0.0125
3993.00,0.0125
3992.00,0.0125
3991.00,0.0125
3990.00,0.0125
3989.00,0.0125
3988.00,0.0125
3987.00,0.0125
3986.00,0.0125
3985.00,0.0125
3984.00,0.0125
3983.00,0.0125
3982.00,0.0125
3981.00,0.0125
3980.00,0.0125
3979.00,0.0126
3978.00,0.0126
3977.00,0.0126
3976.00,0.0126
3975.00,0.0126
3974.00,0.0126
3973.00,0.0126
3972.00,0.0126
3971.00,0.0126
3970.00,0.0126
3969.00,0.0126
3968.00,0.0126
3967.00,0.0126
3966.00,0.0126
3965.00,0.0126
3964.00,0.0126
3963.00,0.0126
3962.00,0.0126
3961.00,0.0126
3960.00,0.0126
3959.00,0.0126
3958.00,0.0126
3957.00,0.0126
3956.00,0.0126
3955.00,0.0126
3954.00,0.0126
3953.00,0.0127
3952.00,0.0127
3951.00,0.0127
3950.00,0.0127
3949.00,0.0128
3948.00,0.0128
3947.00,0.0128
3946.00,0.0128
3945.00,0.0128
3944.00,0.0128
3943.00,0.0127
3942.00,0.0128
3941.00,0.0128
3940.00,0.0127
3939.00,0.0127
3938.00,0.0127
3937.00,0.0128
3936.00,0.0128
3935.00,0.0129
3934.00,0.0129
3933.00,0.0129
3932.00,0.0129
3931.00,0.0128
3930.00,0.0128
3929.00,0.0128
3928.00,0.0128
3927.00,0.0129
3926.00,0.0128
3925.00,0.0128
3924.00,0.0129
3923.00,0.0129
3922.00,0.0129
3921.00,0.0130
3920.00,0.0130
3919.00,0.0130
3918.00,0.0130
3917.00,0.0129
3916.00,0.0129
3915.00,0.0128
3914.00,0.0128
3913.00,0.0128
3912.00,0.0128
3911.00,0.0128
3910.00,0.0129
3909.00,0.0129
3908.00,0.0129
3907.00,0.0130
3906.00,0.0130
3905.00,0.0131
3904.00,0.0133
3903.00,0.0134
3902.00,0.0133
3901.00,0.0132
3900.00,0.0131
3899.00,0.0130
3898.00,0.0131
3897.00,0.0131
3896.00,0.0130
3895.00,0.0130
3894.00,0.0130
3893.00,0.0130
3892.00,0.0129
3891.00,0.0130
3890.00,0.0131
3889.00,0.0132
3888.00,0.0131
3887.00,0.0131
3886.00,0.0131
3885.00,0.0132
3884.00,0.0133
3883.00,0.0132
3882.00,0.0130
3881.00,0.0130
3880.00,0.0131
3879.00,0.0132
3878.00,0.0132
3877.00,0.0131
3876.00,0.0131
3875.00,0.0131
3874.00,0.0132
3873.00,0.0133
3872.00,0.0132
3871.00,0.0131
3870.00,0.0132
3869.00,0.0133
3868.00,0.0133
3867.00,0.0132
3866.00,0.0131
3865.00,0.0132
3864.00,0.0133
3863.00,0.0133
3862.00,0.0132
3861.00,0.0132
3860.00,0.0132
3859.00,0.0132
3858.00,0.0132
3857.00,0.0131
3856.00,0.0129
3855.00,0.0128
3854.00,0.0129
3853.00,0.0131
3852.00,0.0133
3851.00,0.0132
3850.00,0.0130
3849.00,0.0130
3848.00,0.0131
3847.00,0.0132
3846.00,0.0132
3845.00,0.0132
3844.00,0.0132
3843.00,0.0133
3842.00,0.0133
3841.00,0.0133
3840.00,0.0133
3839.00,0.0132
3838.00,0.0133
3837.00,0.0133
3836.00,0.0133
3835.00,0.0132
3834.00,0.0132
3833.00,0.0132
3832.00,0.0132
3831.00,0.0133
3830.00,0.0133
3829.00,0.0132
3828.00,0.0132
3827.00,0.0132
3826.00,0.0133
3825.00,0.0134
3824.00,0.0133
3823.00,0.0133
3822.00,0.0132
3821.00,0.0133
3820.00,0.0135
3819.00,0.0134
3818.00,0.0132
3817.00,0.0131
3816.00,0.0132
3815.00,0.0133
3814.00,0.0133
3813.00,0.0131
3812.00,0.0131
3811.00,0.0132
3810.00,0.0133
3809.00,0.0132
3808.00,0.0132
3807.00,0.0132
3806.00,0.0133
3805.00,0.0134
3804.00,0.0133
3803.00,0.0131
3802.00,0.0132
3801.00,0.0134
3800.00,0.0135
3799.00,0.0134
3798.00,0.0132
3797.00,0.0132
3796.00,0.0133
3795.00,0.0133
3794.00,0.0133
3793.00,0.0132
3792.00,0.0131
3791.00,0.0132
3790.00,0.0132
3789.00,0.0132
3788.00,0.0132
3787.00,0.0132
3786.00,0.0132
3785.00,0.0132
3784.00,0.0133
3783.00,0.0133
3782.00,0.0133
3781.00,0.0132
3780.00,0.0132
3779.00,0.0133
3778.00,0.0133
3777.00,0.0133
3776.00,0.0132
3775.00,0.0132
3774.00,0.0133
3773.00,0.0133
3772.00,0.0133
3771.00,0.0133
3770.00,0.0133
3769.00,0.0134
3768.00,0.0134
3767.00,0.0134
3766.00,0.0133
3765.00,0.0134
3764.00,0.0134
3763.00,0.0135
3762.00,0.0134
3761.00,0.0134
3760.00,0.0135
3759.00,0.0135
3758.00,0.0136
3757.00,0.0136
3756.00,0.0136
3755.00,0.0136
3754.00,0.0136
3753.00,0.0137
3752.00,0.0137
3751.00,0.0137
3750.00,0.0137
3749.00,0.0138
3748.00,0.0138
3747.00,0.0137
3746.00,0.0136
3745.00,0.0135
3744.00,0.0137
3743.00,0.0139
3742.00,0.0138
3741.00,0.0137
3740.00,0.0138
3739.00,0.0141
3738.00,0.0142
3737.00,0.0142
3736.00,0.0140
3735.00,0.0138
3734.00,0.0137
3733.00,0.0135
3732.00,0.0136
3731.00,0.0137
3730.00,0.0137
3729.00,0.0137
3728.00,0.0137
3727.00,0.0137
3726.00,0.0138
3725.00,0.0137
3724.00,0.0137
3723.00,0.0136
3722.00,0.0136
3721.00,0.0136
3720.00,0.0136
3719.00,0.0136
3718.00,0.0136
3717.00,0.0136
3716.00,0.0137
3715.00,0.0137
3714.00,0.0136
3713.00,0.0136
3712.00,0.0136
3711.00,0.0136
3710.00,0.0136
3709.00,0.0135
3708.00,0.0135
3707.00,0.0135
3706.00,0.0135
3705.00,0.0135
3704.00,0.0134
3703.00,0.0134
3702.00,0.0134
3701.00,0.0134
3700.00,0.0134
3699.00,0.0134
3698.00,0.0134
3697.00,0.0134
3696.00,0.0134
3695.00,0.0135
3694.00,0.0135
3693.00,0.0135
3692.00,0.0135
3691.00,0.0135
3690.00,0.0134
3689.00,0.0134
3688.00,0.0135
3687.00,0.0135
3686.00,0.0134
3685.00,0.0133
3684.00,0.0134
3683.00,0.0134
3682.00,0.0135
3681.00,0.0135
3680.00,0.0135
3679.00,0.0136
3678.00,0.0136
3677.00,0.0135
3676.00,0.0135
3675.00,0.0136
3674.00,0.0137
3673.00,0.0136
3672.00,0.0135
3671.00,0.0135
3670.00,0.0135
3669.00,0.0136
3668.00,0.0134
3667.00,0.0133
3666.00,0.0133
3665.00,0.0133
3664.00,0.0133
3663.00,0.0133
3662.00,0.0133
3661.00,0.0133
3660.00,0.0133
3659.00,0.0133
3658.00,0.0133
3657.00,0.0133
3656.00,0.0134
3655.00,0.0135
3654.00,0.0136
3653.00,0.0136
3652.00,0.0137
3651.00,0.0138
3650.00,0.0139
3649.00,0.0139
3648.00,0.0138
3647.00,0.0136
3646.00,0.0135
3645.00,0.0135
3644.00,0.0134
3643.00,0.0134
3642.00,0.0133
3641.00,0.0133
3640.00,0.0133
3639.00,0.0133
3638.00,0.0133
3637.00,0.0133
3636.00,0.0133
3635.00,0.0134
3634.00,0.0134
3633.00,0.0135
3632.00,0.0136
3631.00,0.0135
3630.00,0.0135
3629.00,0.0135
3628.00,0.0135
3627.00,0.0135
3626.00,0.0134
3625.00,0.0133
3624.00,0.0134
3623.00,0.0135
3622.00,0.0134
3621.00,0.0134
3620.00,0.0134
3619.00,0.0134
3618.00,0.0135
3617.00,0.0136
3616.00,0.0136
3615.00,0.0136
3614.00,0.0136
3613.00,0.0136
3612.00,0.0136
3611.00,0.0136
3610.00,0.0135
3609.00,0.0135
3608.00,0.0134
3607.00,0.0133
3606.00,0.0133
3605.00,0.0132
3604.00,0.0132
3603.00,0.0132
3602.00,0.0132
3601.00,0.0132
3600.00,0.0132
3599.00,0.0133
3598.00,0.0133
3597.00,0.0133
3596.00,0.0133
3595.00,0.0133
3594.00,0.0133
3593.00,0.0133
3592.00,0.0134
3591.00,0.0135
3590.00,0.0135
3589.00,0.0135
3588.00,0.0134
3587.00,0.0134
3586.00,0.0133
3585.00,0.0132
3584.00,0.0132
3583.00,0.0132
3582.00,0.0132
3581.00,0.0131
3580.00,0.0131
3579.00,0.0130
3578.00,0.0130
3577.00,0.0130
3576.00,0.0130
3575.00,0.0130
3574.00,0.0130
3573.00,0.0131
3572.00,0.0132
3571.00,0.0133
3570.00,0.0134
3569.00,0.0135
3568.00,0.0135
3567.00,0.0134
3566.00,0.0133
3565.00,0.0132
3564.00,0.0131
3563.00,0.0131
3562.00,0.0131
3561.00,0.0131
3560.00,0.0130
3559.00,0.0130
3558.00,0.0129
3557.00,0.0129
3556.00,0.0130
3555.00,0.0130
3554.00,0.0130
3553.00,0.0129
3552.00,0.0130
3551.00,0.0130
3550.00,0.0130
3549.00,0.0131
3548.00,0.0131
3547.00,0.0131
3546.00,0.0131
3545.00,0.0130
3544.00,0.0129
3543.00,0.0129
3542.00,0.0129
3541.00,0.0129
3540.00,0.0129
3539.00,0.0129
3538.00,0.0128
3537.00,0.0128
3536.00,0.0128
3535.00,0.0128
3534.00,0.0128
3533.00,0.0128
3532.00,0.0128
3531.00,0.0128
3530.00,0.0129
3529.00,0.0129
3528.00,0.0129
3527.00,0.0129
3526.00,0.0129
3525.00,0.0129
3524.00,0.0129
3523.00,0.0128
3522.00,0.0128
3521.00,0.0128
3520.00,0.0128
3519.00,0.0127
3518.00,0.0127
3517.00,0.0127
3516.00,0.0127
3515.00,0.0127
3514.00,0.0127
3513.00,0.0127
3512.00,0.0127
3511.00,0.0127
3510.00,0.0127
3509.00,0.0127
3508.00,0.0127
3507.00,0.0127
3506.00,0.0127
3505.00,0.0127
3504.00,0.0127
3503.00,0.0127
3502.00,0.0127
3501.00,0.0127
3500.00,0.0126
3499.00,0.0126
3498.00,0.0126
3497.00,0.0126
3496.00,0.0126
3495.00,0.0126
3494.00,0.0126
3493.00,0.0126
3492.00,0.0126
3491.00,0.0126
3490.00,0.0126
3489.00,0.0126
3488.00,0.0125
3487.00,0.0125
3486.00,0.0125
3485.00,0.0125
3484.00,0.0125
3483.00,0.0125
3482.00,0.0125
3481.00,0.0125
3480.00,0.0125
3479.00,0.0125
3478.00,0.0125
3477.00,0.0125
3476.00,0.0125
3475.00,0.0125
3474.00,0.0125
3473.00,0.0125
3472.00,0.0125
3471.00,0.0125
3470.00,0.0125
3469.00,0.0125
3468.00,0.0125
3467.00,0.0125
3466.00,0.0125
3465.00,0.0125
3464.00,0.0125
3463.00,0.0125
3462.00,0.0125
3461.00,0.0125
3460.00,0.0125
3459.00,0.0125
3458.00,0.0124
3457.00,0.0124
3456.00,0.0124
3455.00,0.0124
3454.00,0.0124
3453.00,0.0125
3452.00,0.0125
3451.00,0.0125
3450.00,0.0125
3449.00,0.0125
3448.00,0.0125
3447.00,0.0125
3446.00,0.0125
3445.00,0.0125
3444.00,0.0125
3443.00,0.0125
3442.00,0.0125
3441.00,0.0125
3440.00,0.0125
3439.00,0.0125
3438.00,0.0125
3437.00,0.0124
3436.00,0.0124
3435.00,0.0124
3434.00,0.0124
3433.00,0.0124
3432.00,0.0125
3431.00,0.0125
3430.00,0.0125
3429.00,0.0125
3428.00,0.0125
3427.00,0.0125
3426.00,0.0125
3425.00,0.0125
3424.00,0.0125
3423.00,0.0125
3422.00,0.0125
3421.00,0.0125
3420.00,0.0125
3419.00,0.0125
3418.00,0.0125
3417.00,0.0125
3416.00,0.0125
3415.00,0.0125
3414.00,0.0125
3413.00,0.0125
3412.00,0.0125
3411.00,0.0125
3410.00,0.0125
3409.00,0.0125
3408.00,0.0125
3407.00,0.0125
3406.00,0.0125
3405.00,0.0125
3404.00,0.0125
3403.00,0.0125
3402.00,0.0125
3401.00,0.0125
3400.00,0.0125
3399.00,0.0125
3398.00,0.0125
3397.00,0.0125
3396.00,0.0125
3395.00,0.0125
3394.00,0.0125
3393.00,0.0125
3392.00,0.0125
3391.00,0.0125
3390.00,0.0125
3389.00,0.0125
3388.00,0.0125
3387.00,0.0125
3386.00,0.0125
3385.00,0.0125
3384.00,0.0125
3383.00,0.0125
3382.00,0.0125
3381.00,0.0125
3380.00,0.0125
3379.00,0.0125
3378.00,0.0125
3377.00,0.0125
3376.00,0.0125
3375.00,0.0125
3374.00,0.0125
3373.00,0.0125
3372.00,0.0125
3371.00,0.0126
3370.00,0.0126
3369.00,0.0126
3368.00,0.0126
3367.00,0.0126
3366.00,0.0126
3365.00,0.0126
3364.00,0.0126
3363.00,0.0126
3362.00,0.0126
3361.00,0.0126
3360.00,0.0126
3359.00,0.0126
3358.00,0.0126
3357.00,0.0126
3356.00,0.0126
3355.00,0.0126
3354.00,0.0126
3353.00,0.0126
3352.00,0.0127
3351.00,0.0127
3350.00,0.0127
3349.00,0.0127
3348.00,0.0127
3347.00,0.0127
3346.00,0.0127
3345.00,0.0127
3344.00,0.0127
3343.00,0.0127
3342.00,0.0127
3341.00,0.0127
3340.00,0.0127
3339.00,0.0127
3338.00,0.0127
3337.00,0.0127
3336.00,0.0127
3335.00,0.0127
3334.00,0.0127
3333.00,0.0128
3332.00,0.0128
3331.00,0.0128
3330.00,0.0128
3329.00,0.0128
3328.00,0.0128
3327.00,0.0128
3326.00,0.0128
3325.00,0.0128
3324.00,0.0128
3323.00,0.0128
3322.00,0.0128
3321.00,0.0128
3320.00,0.0128
3319.00,0.0128
3318.00,0.0128
3317.00,0.0128
3316.00,0.0128
3315.00,0.0129
3314.00,0.0129
3313.00,0.0129
3312.00,0.0129
3311.00,0.0129
3310.00,0.0129
3309.00,0.0129
3308.00,0.0129
3307.00,0.0129
3306.00,0.0129
3305.00,0.0129
3304.00,0.0129
3303.00,0.0129
3302.00,0.0129
3301.00,0.0129
3300.00,0.0129
3299.00,0.0129
3298.00,0.0129
3297.00,0.0129
3296.00,0.0129
3295.00,0.0130
3294.00,0.0130
3293.00,0.0130
3292.00,0.0130
3291.00,0.0130
3290.00,0.0130
3289.00,0.0130
3288.00,0.0130
3287.00,0.0130
3286.00,0.0130
3285.00,0.0130
3284.00,0.0130
3283.00,0.0130
3282.00,0.0130
3281.00,0.0130
3280.00,0.0130
3279.00,0.0130
3278.00,0.0130
3277.00,0.0130
3276.00,0.0130
3275.00,0.0130
3274.00,0.0130
3273.00,0.0131
3272.00,0.0131
3271.00,0.0131
3270.00,0.0131
3269.00,0.0130
3268.00,0.0130
3267.00,0.0130
3266.00,0.0131
3265.00,0.0131
3264.00,0.0131
3263.00,0.0131
3262.00,0.0131
3261.00,0.0131
3260.00,0.0131
3259.00,0.0131
3258.00,0.0131
3257.00,0.0131
3256.00,0.0131
3255.00,0.0131
3254.00,0.0131
3253.00,0.0131
3252.00,0.0131
3251.00,0.0131
3250.00,0.0131
3249.00,0.0131
3248.00,0.0131
3247.00,0.0131
3246.00,0.0131
3245.00,0.0131
3244.00,0.0131
3243.00,0.0131
3242.00,0.0131
3241.00,0.0131
3240.00,0.0131
3239.00,0.0132
3238.00,0.0132
3237.00,0.0132
3236.00,0.0132
3235.00,0.0132
3234.00,0.0132
3233.00,0.0132
3232.00,0.0132
3231.00,0.0132
3230.00,0.0132
3229.00,0.0132
3228.00,0.0132
3227.00,0.0132
3226.00,0.0132
3225.00,0.0132
3224.00,0.0132
3223.00,0.0132
3222.00,0.0132
3221.00,0.0132
3220.00,0.0132
3219.00,0.0132
3218.00,0.0132
3217.00,0.0133
3216.00,0.0133
3215.00,0.0133
3214.00,0.0133
3213.00,0.0133
3212.00,0.0133
3211.00,0.0133
3210.00,0.0133
3209.00,0.0133
3208.00,0.0133
3207.00,0.0133
3206.00,0.0133
3205.00,0.0133
3204.00,0.0133
3203.00,0.0133
3202.00,0.0133
3201.00,0.0133
3200.00,0.0133
3199.00,0.0133
3198.00,0.0133
3197.00,0.0134
3196.00,0.0134
3195.00,0.0134
3194.00,0.0134
3193.00,0.0134
3192.00,0.0134
3191.00,0.0134
3190.00,0.0134
3189.00,0.0134
3188.00,0.0134
3187.00,0.0134
3186.00,0.0134
3185.00,0.0134
3184.00,0.0134
3183.00,0.0134
3182.00,0.0134
3181.00,0.0134
3180.00,0.0135
3179.00,0.0135
3178.00,0.0135
3177.00,0.0135
3176.00,0.0135
3175.00,0.0135
3174.00,0.0135
3173.00,0.0135
3172.00,0.0135
3171.00,0.0135
3170.00,0.0135
3169.00,0.0135
3168.00,0.0135
3167.00,0.0135
3166.00,0.0135
3165.00,0.0135
3164.00,0.0135
3163.00,0.0135
3162.00,0.0135
3161.00,0.0135
3160.00,0.0136
3159.00,0.0136
3158.00,0.0136
3157.00,0.0136
3156.00,0.0136
3155.00,0.0136
3154.00,0.0136
3153.00,0.0136
3152.00,0.0136
3151.00,0.0136
3150.00,0.0136
3149.00,0.0136
3148.00,0.0136
3147.00,0.0136
3146.00,0.0136
3145.00,0.0136
3144.00,0.0136
3143.00,0.0136
3142.00,0.0136
3141.00,0.0136
3140.00,0.0137
3139.00,0.0137
3138.00,0.0137
3137.00,0.0137
3136.00,0.0137
3135.00,0.0137
3134.00,0.0137
3133.00,0.0137
3132.00,0.0137
3131.00,0.0137
3130.00,0.0137
3129.00,0.0137
3128.00,0.0137
3127.00,0.0137
3126.00,0.0137
3125.00,0.0137
3124.00,0.0137
3123.00,0.0137
3122.00,0.0137
3121.00,0.0137
3120.00,0.0137
3119.00,0.0138
3118.00,0.0138
3117.00,0.0138
3116.00,0.0138
3115.00,0.0138
3114.00,0.0138
3113.00,0.0138
3112.00,0.0138
3111.00,0.0138
3110.00,0.0138
3109.00,0.0138
3108.00,0.0138
3107.00,0.0138
3106.00,0.0138
3105.00,0.0138
3104.00,0.0138
3103.00,0.0138
3102.00,0.0138
3101.00,0.0138
3100.00,0.0138
3099.00,0.0138
3098.00,0.0138
3097.00,0.0138
3096.00,0.0138
3095.00,0.0138
3094.00,0.0138
3093.00,0.0138
3092.00,0.0138
3091.00,0.0138
3090.00,0.0138
3089.00,0.0138
3088.00,0.0138
3087.00,0.0138
3086.00,0.0138
3085.00,0.0139
3084.00,0.0139
3083.00,0.0139
3082.00,0.0139
3081.00,0.0139
3080.00,0.0139
3079.00,0.0139
3078.00,0.0139
3077.00,0.0139
3076.00,0.0139
3075.00,0.0139
3074.00,0.0139
3073.00,0.0139
3072.00,0.0139
3071.00,0.0139
3070.00,0.0139
3069.00,0.0139
3068.00,0.0139
3067.00,0.0139
3066.00,0.0139
3065.00,0.0139
3064.00,0.0139
3063.00,0.0139
3062.00,0.0139
3061.00,0.0139
3060.00,0.0139
3059.00,0.0139
3058.00,0.0139
3057.00,0.0139
3056.00,0.0139
3055.00,0.0139
3054.00,0.0139
3053.00,0.0139
3052.00,0.0139
3051.00,0.0139
3050.00,0.0139
3049.00,0.0139
3048.00,0.0139
3047.00,0.0140
3046.00,0.0140
3045.00,0.0140
3044.00,0.0139
3043.00,0.0139
3042.00,0.0139
3041.00,0.0139
3040.00,0.0139
3039.00,0.0139
3038.00,0.0139
3037.00,0.0139
3036.00,0.0139
3035.00,0.0139
3034.00,0.0139
3033.00,0.0139
3032.00,0.0139
3031.00,0.0139
3030.00,0.0139
3029.00,0.0139
3028.00,0.0139
3027.00,0.0139
3026.00,0.0139
3025.00,0.0139
3024.00,0.0138
3023.00,0.0138
3022.00,0.0138
3021.00,0.0138
3020.00,0.0138
3019.00,0.0138
3018.00,0.0138
3017.00,0.0138
3016.00,0.0138
3015.00,0.0137
3014.00,0.0137
3013.00,0.0137
3012.00,0.0137
3011.00,0.0137
3010.00,0.0137
3009.00,0.0137
3008.00,0.0137
3007.00,0.0137
3006.00,0.0136
3005.00,0.0136
3004.00,0.0136
3003.00,0.0136
3002.00,0.0136
3001.00,0.0136
3000.00,0.0136
2999.00,0.0136
2998.00,0.0135
2997.00,0.0135
2996.00,0.0135
2995.00,0.0135
2994.00,0.0135
2993.00,0.0135
2992.00,0.0135
2991.00,0.0134
2990.00,0.0134
2989.00,0.0134
2988.00,0.0134
2987.00,0.0134
2986.00,0.0134
2985.00,0.0134
2984.00,0.0134
2983.00,0.0135
2982.00,0.0135
2981.00,0.0135
2980.00,0.0135
2979.00,0.0135
2978.00,0.0135
2977.00,0.0135
2976.00,0.0135
2975.00,0.0135
2974.00,0.0135
2973.00,0.0135
2972.00,0.0135
2971.00,0.0135
2970.00,0.0135
2969.00,0.0135
2968.00,0.0136
2967.00,0.0136
2966.00,0.0136
2965.00,0.0136
2964.00,0.0136
2963.00,0.0136
2962.00,0.0136
2961.00,0.0136
2960.00,0.0136
2959.00,0.0136
2958.00,0.0136
2957.00,0.0136
2956.00,0.0136
2955.00,0.0136
2954.00,0.0136
2953.00,0.0136
2952.00,0.0136
2951.00,0.0136
2950.00,0.0136
2949.00,0.0136
2948.00,0.0137
2947.00,0.0137
2946.00,0.0137
2945.00,0.0137
2944.00,0.0137
2943.00,0.0137
2942.00,0.0137
2941.00,0.0137
2940.00,0.0137
2939.00,0.0137
2938.00,0.0137
2937.00,0.0137
2936.00,0.0137
2935.00,0.0137
2934.00,0.0137
2933.00,0.0137
2932.00,0.0137
2931.00,0.0137
2930.00,0.0137
2929.00,0.0137
2928.00,0.0137
2927.00,0.0136
2926.00,0.0136
2925.00,0.0136
2924.00,0.0136
2923.00,0.0135
2922.00,0.0135
2921.00,0.0135
2920.00,0.0135
2919.00,0.0135
2918.00,0.0135
2917.00,0.0135
2916.00,0.0135
2915.00,0.0135
2914.00,0.0135
2913.00,0.0135
2912.00,0.0135
2911.00,0.0135
2910.00,0.0135
2909.00,0.0135
2908.00,0.0135
2907.00,0.0135
2906.00,0.0136
2905.00,0.0136
2904.00,0.0135
2903.00,0.0135
2902.00,0.0135
2901.00,0.0135
2900.00,0.0135
2899.00,0.0136
2898.00,0.0136
2897.00,0.0136
2896.00,0.0136
2895.00,0.0136
2894.00,0.0136
2893.00,0.0136
2892.00,0.0136
2891.00,0.0137
2890.00,0.0137
2889.00,0.0137
2888.00,0.0137
2887.00,0.0137
2886.00,0.0137
2885.00,0.0137
2884.00,0.0137
2883.00,0.0137
2882.00,0.0138
2881.00,0.0138
2880.00,0.0138
2879.00,0.0138
2878.00,0.0138
2877.00,0.0139
2876.00,0.0139
2875.00,0.0139
2874.00,0.0139
2873.00,0.0139
2872.00,0.0139
2871.00,0.0139
2870.00,0.0139
2869.00,0.0139
2868.00,0.0139
2867.00,0.0139
2866.00,0.0139
2865.00,0.0139
2864.00,0.0140
2863.00,0.0140
2862.00,0.0140
2861.00,0.0140
2860.00,0.0140
2859.00,0.0140
2858.00,0.0140
2857.00,0.0140
2856.00,0.0140
2855.00,0.0140
2854.00,0.0140
2853.00,0.0140
2852.00,0.0140
2851.00,0.0139
2850.00,0.0139
2849.00,0.0139
2848.00,0.0139
2847.00,0.0139
2846.00,0.0139
2845.00,0.0140
2844.00,0.0140
2843.00,0.0140
2842.00,0.0140
2841.00,0.0140
2840.00,0.0141
2839.00,0.0141
2838.00,0.0141
2837.00,0.0141
2836.00,0.0141
2835.00,0.0141
2834.00,0.0141
2833.00,0.0141
2832.00,0.0141
2831.00,0.0141
2830.00,0.0142
2829.00,0.0142
2828.00,0.0142
2827.00,0.0142
2826.00,0.0142
2825.00,0.0142
2824.00,0.0142
2823.00,0.0142
2822.00,0.0142
2821.00,0.0142
2820.00,0.0142
2819.00,0.0142
2818.00,0.0142
2817.00,0.0142
2816.00,0.0142
2815.00,0.0142
2814.00,0.0142
2813.00,0.0142
2812.00,0.0142
2811.00,0.0142
2810.00,0.0142
2809.00,0.0142
2808.00,0.0142
2807.00,0.0142
2806.00,0.0142
2805.00,0.0142
2804.00,0.0142
2803.00,0.0142
2802.00,0.0142
2801.00,0.0142
2800.00,0.0143
2799.00,0.0143
2798.00,0.0143
2797.00,0.0142
2796.00,0.0142
2795.00,0.0142
2794.00,0.0143
2793.00,0.0143
2792.00,0.0143
2791.00,0.0143
2790.00,0.0143
2789.00,0.0143
2788.00,0.0143
2787.00,0.0143
2786.00,0.0143
2785.00,0.0143
2784.00,0.0143
2783.00,0.0143
2782.00,0.0143
2781.00,0.0143
2780.00,0.0143
2779.00,0.0143
2778.00,0.0143
2777.00,0.0143
2776.00,0.0143
2775.00,0.0143
2774.00,0.0143
2773.00,0.0143
2772.00,0.0143
2771.00,0.0143
2770.00,0.0143
2769.00,0.0143
2768.00,0.0143
2767.00,0.0143
2766.00,0.0143
2765.00,0.0143
2764.00,0.0143
2763.00,0.0143
2762.00,0.0143
2761.00,0.0143
2760.00,0.0143
2759.00,0.0143
2758.00,0.0143
2757.00,0.0143
2756.00,0.0143
2755.00,0.0143
2754.00,0.0143
2753.00,0.0143
2752.00,0.0143
2751.00,0.0143
2750.00,0.0143
2749.00,0.0143
2748.00,0.0143
2747.00,0.0143
2746.00,0.0143
2745.00,0.0143
2744.00,0.0143
2743.00,0.0143
2742.00,0.0143
2741.00,0.0143
2740.00,0.0143
2739.00,0.0143
2738.00,0.0143
2737.00,0.0143
2736.00,0.0143
2735.00,0.0143
2734.00,0.0143
2733.00,0.0143
2732.00,0.0143
2731.00,0.0143
2730.00,0.0143
2729.00,0.0143
2728.00,0.0143
2727.00,0.0143
2726.00,0.0143
2725.00,0.0143
2724.00,0.0143
2723.00,0.0143
2722.00,0.0143
2721.00,0.0143
2720.00,0.0143
2719.00,0.0143
2718.00,0.0143
2717.00,0.0143
2716.00,0.0143
2715.00,0.0143
2714.00,0.0143
2713.00,0.0143
2712.00,0.0143
2711.00,0.0144
2710.00,0.0144
2709.00,0.0144
2708.00,0.0144
2707.00,0.0144
2706.00,0.0144
2705.00,0.0143
2704.00,0.0143
2703.00,0.0144
2702.00,0.0144
2701.00,0.0144
2700.00,0.0144
2699.00,0.0144
2698.00,0.0144
2697.00,0.0144
2696.00,0.0144
2695.00,0.0144
2694.00,0.0144
2693.00,0.0144
2692.00,0.0144
2691.00,0.0144
2690.00,0.0144
2689.00,0.0144
2688.00,0.0144
2687.00,0.0144
2686.00,0.0144
2685.00,0.0144
2684.00,0.0144
2683.00,0.0144
2682.00,0.0144
2681.00,0.0144
2680.00,0.0144
2679.00,0.0144
2678.00,0.0144
2677.00,0.0144
2676.00,0.0144
2675.00,0.0144
2674.00,0.0144
2673.00,0.0144
2672.00,0.0144
2671.00,0.0144
2670.00,0.0144
2669.00,0.0144
2668.00,0.0144
2667.00,0.0144
2666.00,0.0144
2665.00,0.0144
2664.00,0.0144
2663.00,0.0144
2662.00,0.0144
2661.00,0.0144
2660.00,0.0144
2659.00,0.0144
2658.00,0.0144
2657.00,0.0144
2656.00,0.0144
2655.00,0.0144
2654.00,0.0144
2653.00,0.0144
2652.00,0.0144
2651.00,0.0144
2650.00,0.0144
2649.00,0.0144
2648.00,0.0144
2647.00,0.0144
2646.00,0.0144
2645.00,0.0144
2644.00,0.0144
2643.00,0.0144
2642.00,0.0144
2641.00,0.0144
2640.00,0.0144
2639.00,0.0144
2638.00,0.0144
2637.00,0.0144
2636.00,0.0144
2635.00,0.0144
2634.00,0.0144
2633.00,0.0144
2632.00,0.0144
2631.00,0.0144
2630.00,0.0144
2629.00,0.0144
2628.00,0.0144
2627.00,0.0144
2626.00,0.0144
2625.00,0.0144
2624.00,0.0144
2623.00,0.0144
2622.00,0.0144
2621.00,0.0144
2620.00,0.0144
2619.00,0.0144
2618.00,0.0144
2617.00,0.0144
2616.00,0.0144
2615.00,0.0144
2614.00,0.0144
2613.00,0.0144
2612.00,0.0144
2611.00,0.0144
2610.00,0.0144
2609.00,0.0144
2608.00,0.0144
2607.00,0.0144
2606.00,0.0144
2605.00,0.0144
2604.00,0.0144
2603.00,0.0144
2602.00,0.0144
2601.00,0.0144
2600.00,0.0144
2599.00,0.0144
2598.00,0.0144
2597.00,0.0144
2596.00,0.0144
2595.00,0.0144
2594.00,0.0144
2593.00,0.0144
2592.00,0.0144
2591.00,0.0144
2590.00,0.0144
2589.00,0.0144
2588.00,0.0144
2587.00,0.0144
2586.00,0.0144
2585.00,0.0144
2584.00,0.0144
2583.00,0.0144
2582.00,0.0144
2581.00,0.0144
2580.00,0.0144
2579.00,0.0145
2578.00,0.0145
2577.00,0.0145
2576.00,0.0144
2575.00,0.0144
2574.00,0.0145
2573.00,0.0145
2572.00,0.0145
2571.00,0.0145
2570.00,0.0145
2569.00,0.0145
2568.00,0.0145
2567.00,0.0145
2566.00,0.0145
2565.00,0.0145
2564.00,0.0145
2563.00,0.0145
2562.00,0.0145
2561.00,0.0145
2560.00,0.0145
2559.00,0.0145
2558.00,0.0145
2557.00,0.0145
2556.00,0.0145
2555.00,0.0145
2554.00,0.0145
2553.00,0.0145
2552.00,0.0145
2551.00,0.0145
2550.00,0.0145
2549.00,0.0145
2548.00,0.0145
2547.00,0.0145
2546.00,0.0145
2545.00,0.0145
2544.00,0.0145
2543.00,0.0145
2542.00,0.0145
2541.00,0.0145
2540.00,0.0145
2539.00,0.0145
2538.00,0.0145
2537.00,0.0145
2536.00,0.0145
2535.00,0.0145
2534.00,0.0145
2533.00,0.0145
2532.00,0.0145
2531.00,0.0145
2530.00,0.0145
2529.00,0.0145
2528.00,0.0145
2527.00,0.0145
2526.00,0.0145
2525.00,0.0145
2524.00,0.0145
2523.00,0.0145
2522.00,0.0145
2521.00,0.0145
2520.00,0.0145
2519.00,0.0145
2518.00,0.0145
2517.00,0.0145
2516.00,0.0145
2515.00,0.0145
2514.00,0.0145
2513.00,0.0145
2512.00,0.0145
2511.00,0.0145
2510.00,0.0145
2509.00,0.0145
2508.00,0.0145
2507.00,0.0145
2506.00,0.0145
2505.00,0.0145
2504.00,0.0145
2503.00,0.0145
2502.00,0.0145
2501.00,0.0145
2500.00,0.0145
2499.00,0.0145
2498.00,0.0145
2497.00,0.0145
2496.00,0.0145
2495.00,0.0145
2494.00,0.0145
2493.00,0.0145
2492.00,0.0145
2491.00,0.0145
2490.00,0.0145
2489.00,0.0145
2488.00,0.0145
2487.00,0.0145
2486.00,0.0145
2485.00,0.0145
2484.00,0.0145
2483.00,0.0145
2482.00,0.0145
2481.00,0.0145
2480.00,0.0145
2479.00,0.0145
2478.00,0.0145
2477.00,0.0145
2476.00,0.0145
2475.00,0.0145
2474.00,0.0145
2473.00,0.0145
2472.00,0.0145
2471.00,0.0145
2470.00,0.0145
2469.00,0.0145
2468.00,0.0145
2467.00,0.0145
2466.00,0.0145
2465.00,0.0145
2464.00,0.0145
2463.00,0.0145
2462.00,0.0145
2461.00,0.0145
2460.00,0.0145
2459.00,0.0145
2458.00,0.0145
2457.00,0.0145
2456.00,0.0145
2455.00,0.0145
2454.00,0.0145
2453.00,0.0145
2452.00,0.0145
2451.00,0.0145
2450.00,0.0145
2449.00,0.0145
2448.00,0.0145
2447.00,0.0145
2446.00,0.0145
2445.00,0.0145
2444.00,0.0145
2443.00,0.0145
2442.00,0.0145
2441.00,0.0145
2440.00,0.0145
2439.00,0.0145
2438.00,0.0145
2437.00,0.0145
2436.00,0.0145
2435.00,0.0145
2434.00,0.0145
2433.00,0.0145
2432.00,0.0145
2431.00,0.0145
2430.00,0.0145
2429.00,0.0145
2428.00,0.0145
2427.00,0.0145
2426.00,0.0145
2425.00,0.0145
2424.00,0.0145
2423.00,0.0145
2422.00,0.0145
2421.00,0.0145
2420.00,0.0145
2419.00,0.0145
2418.00,0.0145
2417.00,0.0145
2416.00,0.0145
2415.00,0.0145
2414.00,0.0145
2413.00,0.0145
2412.00,0.0145
2411.00,0.0145
2410.00,0.0145
2409.00,0.0145
2408.00,0.0145
2407.00,0.0145
2406.00,0.0145
2405.00,0.0145
2404.00,0.0145
2403.00,0.0145
2402.00,0.0145
2401.00,0.0145
2400.00,0.0145
2399.00,0.0145
2398.00,0.0145
2397.00,0.0145
2396.00,0.0145
2395.00,0.0145
2394.00,0.0145
2393.00,0.0145
2392.00,0.0145
2391.00,0.0145
2390.00,0.0145
2389.00,0.0145
2388.00,0.0145
2387.00,0.0145
2386.00,0.0145
2385.00,0.0145
2384.00,0.0145
2383.00,0.0145
2382.00,0.0145
2381.00,0.0145
2380.00,0.0145
2379.00,0.0145
2378.00,0.0145
2377.00,0.0145
2376.00,0.0145
2375.00,0.0145
2374.00,0.0146
2373.00,0.0146
2372.00,0.0146
2371.00,0.0146
2370.00,0.0145
2369.00,0.0145
2368.00,0.0146
2367.00,0.0146
2366.00,0.0146
2365.00,0.0146
2364.00,0.0146
2363.00,0.0146
2362.00,0.0146
2361.00,0.0146
2360.00,0.0146
2359.00,0.0146
2358.00,0.0146
2357.00,0.0146
2356.00,0.0146
2355.00,0.0145
2354.00,0.0145
2353.00,0.0146
2352.00,0.0146
2351.00,0.0146
2350.00,0.0147
2349.00,0.0147
2348.00,0.0147
2347.00,0.0147
2346.00,0.0147
2345.00,0.0148
2344.00,0.0148
2343.00,0.0149
2342.00,0.0149
2341.00,0.0148
2340.00,0.0148
2339.00,0.0148
2338.00,0.0148
2337.00,0.0148
2336.00,0.0147
2335.00,0.0147
2334.00,0.0147
2333.00,0.0147
2332.00,0.0148
2331.00,0.0148
2330.00,0.0149
2329.00,0.0149
2328.00,0.0149
2327.00,0.0148
2326.00,0.0148
2325.00,0.0148
2324.00,0.0148
2323.00,0.0149
2322.00,0.0150
2321.00,0.0150
2320.00,0.0151
2319.00,0.0151
2318.00,0.0150
2317.00,0.0150
2316.00,0.0149
2315.00,0.0149
2314.00,0.0150
2313.00,0.0150
2312.00,0.0151
2311.00,0.0151
2310.00,0.0151
2309.00,0.0151
2308.00,0.0152
2307.00,0.0151
2306.00,0.0151
2305.00,0.0151
2304.00,0.0150
2303.00,0.0150
2302.00,0.0150
2301.00,0.0149
2300.00,0.0149
2299.00,0.0149
2298.00,0.0148
2297.00,0.0148
2296.00,0.0148
2295.00,0.0148
2294.00,0.0147
2293.00,0.0147
2292.00,0.0147
2291.00,0.0147
2290.00,0.0147
2289.00,0.0146
2288.00,0.0146
2287.00,0.0146
2286.00,0.0146
2285.00,0.0146
2284.00,0.0146
2283.00,0.0145
2282.00,0.0145
2281.00,0.0145
2280.00,0.0145
2279.00,0.0145
2278.00,0.0145
2277.00,0.0145
2276.00,0.0145
2275.00,0.0145
2274.00,0.0145
2273.00,0.0145
2272.00,0.0145
2271.00,0.0145
2270.00,0.0145
2269.00,0.0145
2268.00,0.0145
2267.00,0.0145
2266.00,0.0145
2265.00,0.0145
2264.00,0.0145
2263.00,0.0145
2262.00,0.0145
2261.00,0.0145
2260.00,0.0145
2259.00,0.0145
2258.00,0.0145
2257.00,0.0145
2256.00,0.0145
2255.00,0.0146
2254.00,0.0146
2253.00,0.0145
2252.00,0.0145
2251.00,0.0146
2250.00,0.0145
2249.00,0.0145
2248.00,0.0145
2247.00,0.0145
2246.00,0.0145
2245.00,0.0145
2244.00,0.0145
2243.00,0.0145
2242.00,0.0145
2241.00,0.0145
2240.00,0.0145
2239.00,0.0145
2238.00,0.0145
2237.00,0.0145
2236.00,0.0145
2235.00,0.0145
2234.00,0.0145
2233.00,0.0145
2232.00,0.0145
2231.00,0.0145
2230.00,0.0145
2229.00,0.0145
2228.00,0.0145
2227.00,0.0145
2226.00,0.0145
2225.00,0.0145
2224.00,0.0145
2223.00,0.0145
2222.00,0.0145
2221.00,0.0145
2220.00,0.0145
2219.00,0.0145
2218.00,0.0145
2217.00,0.0145
2216.00,0.0145
2215.00,0.0145
2214.00,0.0145
2213.00,0.0145
2212.00,0.0145
2211.00,0.0145
2210.00,0.0145
2209.00,0.0145
2208.00,0.0145
2207.00,0.0145
2206.00,0.0145
2205.00,0.0145
2204.00,0.0145
2203.00,0.0145
2202.00,0.0145
2201.00,0.0145
2200.00,0.0145
2199.00,0.0145
2198.00,0.0145
2197.00,0.0145
2196.00,0.0145
2195.00,0.0145
2194.00,0.0145
2193.00,0.0145
2192.00,0.0145
2191.00,0.0145
2190.00,0.0145
2189.00,0.0145
2188.00,0.0145
2187.00,0.0145
2186.00,0.0145
2185.00,0.0145
2184.00,0.0145
2183.00,0.0145
2182.00,0.0145
2181.00,0.0145
2180.00,0.0145
2179.00,0.0145
2178.00,0.0145
2177.00,0.0145
2176.00,0.0145
2175.00,0.0146
2174.00,0.0146
2173.00,0.0146
2172.00,0.0146
2171.00,0.0146
2170.00,0.0146
2169.00,0.0146
2168.00,0.0146
2167.00,0.0146
2166.00,0.0146
2165.00,0.0146
2164.00,0.0146
2163.00,0.0146
2162.00,0.0146
2161.00,0.0146
2160.00,0.0146
2159.00,0.0146
2158.00,0.0146
2157.00,0.0146
2156.00,0.0146
2155.00,0.0146
2154.00,0.0146
2153.00,0.0146
2152.00,0.0146
2151.00,0.0146
2150.00,0.0146
2149.00,0.0146
2148.00,0.0146
2147.00,0.0146
2146.00,0.0146
2145.00,0.0146
2144.00,0.0146
2143.00,0.0146
2142.00,0.0146
2141.00,0.0146
2140.00,0.0146
2139.00,0.0146
2138.00,0.0146
2137.00,0.0146
2136.00,0.0146
2135.00,0.0146
2134.00,0.0146
2133.00,0.0146
2132.00,0.0146
2131.00,0.0146
2130.00,0.0146
2129.00,0.0146
2128.00,0.0146
2127.00,0.0146
2126.00,0.0146
2125.00,0.0146
2124.00,0.0146
2123.00,0.0146
2122.00,0.0145
2121.00,0.0145
2120.00,0.0145
2119.00,0.0145
2118.00,0.0145
2117.00,0.0145
2116.00,0.0145
2115.00,0.0145
2114.00,0.0145
2113.00,0.0145
2112.00,0.0145
2111.00,0.0145
2110.00,0.0145
2109.00,0.0145
2108.00,0.0145
2107.00,0.0145
2106.00,0.0145
2105.00,0.0145
2104.00,0.0145
2103.00,0.0145
2102.00,0.0145
2101.00,0.0145
2100.00,0.0145
2099.00,0.0145
2098.00,0.0145
2097.00,0.0145
2096.00,0.0145
2095.00,0.0145
2094.00,0.0145
2093.00,0.0145
2092.00,0.0145
2091.00,0.0145
2090.00,0.0145
2089.00,0.0145
2088.00,0.0145
2087.00,0.0145
2086.00,0.0145
2085.00,0.0145
2084.00,0.0145
2083.00,0.0145
2082.00,0.0145
2081.00,0.0145
2080.00,0.0145
2079.00,0.0145
2078.00,0.0145
2077.00,0.0145
2076.00,0.0145
2075.00,0.0145
2074.00,0.0145
2073.00,0.0145
2072.00,0.0145
2071.00,0.0145
2070.00,0.0145
2069.00,0.0145
2068.00,0.0145
2067.00,0.0145
2066.00,0.0145
2065.00,0.0145
2064.00,0.0145
2063.00,0.0145
2062.00,0.0145
2061.00,0.0145
2060.00,0.0145
2059.00,0.0145
2058.00,0.0145
2057.00,0.0145
2056.00,0.0145
2055.00,0.0145
2054.00,0.0146
2053.00,0.0146
2052.00,0.0146
2051.00,0.0146
2050.00,0.0146
2049.00,0.0146
2048.00,0.0146
2047.00,0.0146
2046.00,0.0146
2045.00,0.0146
2044.00,0.0146
2043.00,0.0146
2042.00,0.0146
2041.00,0.0146
2040.00,0.0146
2039.00,0.0146
2038.00,0.0146
2037.00,0.0146
2036.00,0.0146
2035.00,0.0146
2034.00,0.0146
2033.00,0.0146
2032.00,0.0146
2031.00,0.0147
2030.00,0.0147
2029.00,0.0147
2028.00,0.0147
2027.00,0.0146
2026.00,0.0147
2025.00,0.0147
2024.00,0.0147
2023.00,0.0147
2022.00,0.0147
2021.00,0.0147
2020.00,0.0147
2019.00,0.0147
2018.00,0.0147
2017.00,0.0147
2016.00,0.0147
2015.00,0.0147
2014.00,0.0147
2013.00,0.0147
2012.00,0.0147
2011.00,0.0147
2010.00,0.0147
2009.00,0.0147
2008.00,0.0147
2007.00,0.0147
2006.00,0.0147
2005.00,0.0147
2004.00,0.0147
2003.00,0.0147
2002.00,0.0147
2001.00,0.0147
2000.00,0.0147
1999.00,0.0147
1998.00,0.0147
1997.00,0.0147
1996.00,0.0147
1995.00,0.0147
1994.00,0.0147
1993.00,0.0147
1992.00,0.0147
1991.00,0.0147
1990.00,0.0147
1989.00,0.0147
1988.00,0.0147
1987.00,0.0147
1986.00,0.0147
1985.00,0.0148
1984.00,0.0148
1983.00,0.0148
1982.00,0.0148
1981.00,0.0148
1980.00,0.0148
1979.00,0.0148
1978.00,0.0148
1977.00,0.0148
1976.00,0.0148
1975.00,0.0148
1974.00,0.0148
1973.00,0.0148
1972.00,0.0148
1971.00,0.0148
1970.00,0.0148
1969.00,0.0148
1968.00,0.0148
1967.00,0.0148
1966.00,0.0148
1965.00,0.0148
1964.00,0.0148
1963.00,0.0148
1962.00,0.0148
1961.00,0.0149
1960.00,0.0149
1959.00,0.0148
1958.00,0.0148
1957.00,0.0148
1956.00,0.0148
1955.00,0.0148
1954.00,0.0148
1953.00,0.0148
1952.00,0.0148
1951.00,0.0148
1950.00,0.0148
1949.00,0.0148
1948.00,0.0148
1947.00,0.0148
1946.00,0.0148
1945.00,0.0148
1944.00,0.0148
1943.00,0.0148
1942.00,0.0148
1941.00,0.0148
1940.00,0.0148
1939.00,0.0148
1938.00,0.0148
1937.00,0.0148
1936.00,0.0148
1935.00,0.0148
1934.00,0.0148
1933.00,0.0148
1932.00,0.0148
1931.00,0.0148
1930.00,0.0148
1929.00,0.0148
1928.00,0.0149
1927.00,0.0149
1926.00,0.0149
1925.00,0.0148
1924.00,0.0148
1923.00,0.0149
1922.00,0.0149
1921.00,0.0149
1920.00,0.0149
1919.00,0.0149
1918.00,0.0149
1917.00,0.0149
1916.00,0.0149
1915.00,0.0149
1914.00,0.0149
1913.00,0.0149
1912.00,0.0149
1911.00,0.0149
1910.00,0.0149
1909.00,0.0149
1908.00,0.0149
1907.00,0.0149
1906.00,0.0149
1905.00,0.0149
1904.00,0.0149
1903.00,0.0149
1902.00,0.0149
1901.00,0.0149
1900.00,0.0149
1899.00,0.0149
1898.00,0.0149
1897.00,0.0149
1896.00,0.0149
1895.00,0.0149
1894.00,0.0149
1893.00,0.0149
1892.00,0.0149
1891.00,0.0149
1890.00,0.0149
1889.00,0.0149
1888.00,0.0149
1887.00,0.0149
1886.00,0.0150
1885.00,0.0149
1884.00,0.0149
1883.00,0.0149
1882.00,0.0149
1881.00,0.0149
1880.00,0.0149
1879.00,0.0149
1878.00,0.0149
1877.00,0.0149
1876.00,0.0149
1875.00,0.0149
1874.00,0.0150
1873.00,0.0149
1872.00,0.0149
1871.00,0.0149
1870.00,0.0149
1869.00,0.0149
1868.00,0.0149
1867.00,0.0150
1866.00,0.0150
1865.00,0.0150
1864.00,0.0150
1863.00,0.0150
1862.00,0.0150
1861.00,0.0150
1860.00,0.0149
1859.00,0.0150
1858.00,0.0150
1857.00,0.0150
1856.00,0.0150
1855.00,0.0150
1854.00,0.0150
1853.00,0.0150
1852.00,0.0150
1851.00,0.0150
1850.00,0.0150
1849.00,0.0150
1848.00,0.0150
1847.00,0.0150
1846.00,0.0150
1845.00,0.0150
1844.00,0.0150
1843.00,0.0150
1842.00,0.0150
1841.00,0.0150
1840.00,0.0150
1839.00,0.0150
1838.00,0.0150
1837.00,0.0150
1836.00,0.0150
1835.00,0.0150
1834.00,0.0150
1833.00,0.0150
1832.00,0.0150
1831.00,0.0150
1830.00,0.0150
1829.00,0.0150
1828.00,0.0150
1827.00,0.0151
1826.00,0.0151
1825.00,0.0150
1824.00,0.0150
1823.00,0.0150
1822.00,0.0151
1821.00,0.0151
1820.00,0.0150
1819.00,0.0150
1818.00,0.0150
1817.00,0.0150
1816.00,0.0150
1815.00,0.0150
1814.00,0.0150
1813.00,0.0150
1812.00,0.0150
1811.00,0.0150
1810.00,0.0150
1809.00,0.0150
1808.00,0.0150
1807.00,0.0150
1806.00,0.0150
1805.00,0.0150
1804.00,0.0150
1803.00,0.0150
1802.00,0.0151
1801.00,0.0151
1800.00,0.0150
1799.00,0.0150
1798.00,0.0151
1797.00,0.0150
1796.00,0.0150
1795.00,0.0151
1794.00,0.0151
1793.00,0.0151
1792.00,0.0151
1791.00,0.0151
1790.00,0.0151
1789.00,0.0151
1788.00,0.0151
1787.00,0.0151
1786.00,0.0151
1785.00,0.0151
1784.00,0.0150
1783.00,0.0150
1782.00,0.0150
1781.00,0.0150
1780.00,0.0150
1779.00,0.0151
1778.00,0.0151
1777.00,0.0151
1776.00,0.0151
1775.00,0.0150
1774.00,0.0151
1773.00,0.0151
1772.00,0.0151
1771.00,0.0151
1770.00,0.0151
1769.00,0.0152
1768.00,0.0152
1767.00,0.0151
1766.00,0.0151
1765.00,0.0151
1764.00,0.0151
1763.00,0.0150
1762.00,0.0150
1761.00,0.0150
1760.00,0.0151
1759.00,0.0151
1758.00,0.0151
1757.00,0.0151
1756.00,0.0151
1755.00,0.0151
1754.00,0.0152
1753.00,0.0153
1752.00,0.0153
1751.00,0.0153
1750.00,0.0152
1749.00,0.0151
1748.00,0.0151
1747.00,0.0151
1746.00,0.0151
1745.00,0.0151
1744.00,0.0151
1743.00,0.0150
1742.00,0.0150
1741.00,0.0150
1740.00,0.0150
1739.00,0.0150
1738.00,0.0150
1737.00,0.0150
1736.00,0.0151
1735.00,0.0152
1734.00,0.0151
1733.00,0.0151
1732.00,0.0150
1731.00,0.0150
1730.00,0.0150
1729.00,0.0150
1728.00,0.0150
1727.00,0.0150
1726.00,0.0150
1725.00,0.0149
1724.00,0.0149
1723.00,0.0149
1722.00,0.0149
1721.00,0.0149
1720.00,0.0149
1719.00,0.0150
1718.00,0.0150
1717.00,0.0150
1716.00,0.0150
1715.00,0.0150
1714.00,0.0150
1713.00,0.0150
1712.00,0.0149
1711.00,0.0149
1710.00,0.0150
1709.00,0.0149
1708.00,0.0149
1707.00,0.0149
1706.00,0.0149
1705.00,0.0148
1704.00,0.0148
1703.00,0.0149
1702.00,0.0149
1701.00,0.0149
1700.00,0.0148
1699.00,0.0148
1698.00,0.0149
1697.00,0.0150
1696.00,0.0149
1695.00,0.0149
1694.00,0.0149
1693.00,0.0149
1692.00,0.0149
1691.00,0.0149
1690.00,0.0148
1689.00,0.0148
1688.00,0.0148
1687.00,0.0149
1686.00,0.0149
1685.00,0.0149
1684.00,0.0148
1683.00,0.0148
1682.00,0.0148
1681.00,0.0148
1680.00,0.0148
1679.00,0.0148
1678.00,0.0148
1677.00,0.0148
1676.00,0.0148
1675.00,0.0147
1674.00,0.0147
1673.00,0.0147
1672.00,0.0148
1671.00,0.0147
1670.00,0.0147
1669.00,0.0146
1668.00,0.0147
1667.00,0.0146
1666.00,0.0146
1665.00,0.0146
1664.00,0.0146
1663.00,0.0146
1662.00,0.0146
1661.00,0.0146
1660.00,0.0146
1659.00,0.0146
1658.00,0.0146
1657.00,0.0145
1656.00,0.0145
1655.00,0.0145
1654.00,0.0144
1653.00,0.0144
1652.00,0.0144
1651.00,0.0144
1650.00,0.0145
1649.00,0.0146
1648.00,0.0146
1647.00,0.0146
1646.00,0.0146
1645.00,0.0146
1644.00,0.0145
1643.00,0.0145
1642.00,0.0146
1641.00,0.0145
1640.00,0.0145
1639.00,0.0145
1638.00,0.0145
1637.00,0.0145
1636.00,0.0145
1635.00,0.0145
1634.00,0.0145
1633.00,0.0145
1632.00,0.0146
1631.00,0.0146
1630.00,0.0146
1629.00,0.0146
1628.00,0.0146
1627.00,0.0146
1626.00,0.0146
1625.00,0.0146
1624.00,0.0146
1623.00,0.0146
1622.00,0.0146
1621.00,0.0146
1620.00,0.0146
1619.00,0.0147
1618.00,0.0146
1617.00,0.0146
1616.00,0.0147
1615.00,0.0147
1614.00,0.0147
1613.00,0.0147
1612.00,0.0147
1611.00,0.0147
1610.00,0.0147
1609.00,0.0147
1608.00,0.0147
1607.00,0.0147
1606.00,0.0147
1605.00,0.0147
1604.00,0.0148
1603.00,0.0148
1602.00,0.0148
1601.00,0.0148
1600.00,0.0148
1599.00,0.0148
1598.00,0.0148
1597.00,0.0148
1596.00,0.0148
1595.00,0.0148
1594.00,0.0148
1593.00,0.0148
1592.00,0.0148
1591.00,0.0148
1590.00,0.0148
1589.00,0.0148
1588.00,0.0148
1587.00,0.0149
1586.00,0.0148
1585.00,0.0148
1584.00,0.0149
1583.00,0.0149
1582.00,0.0148
1581.00,0.0148
1580.00,0.0148
1579.00,0.0148
1578.00,0.0148
1577.00,0.0148
1576.00,0.0148
1575.00,0.0148
1574.00,0.0148
1573.00,0.0148
1572.00,0.0149
1571.00,0.0148
1570.00,0.0148
1569.00,0.0148
1568.00,0.0149
1567.00,0.0149
1566.00,0.0149
1565.00,0.0149
1564.00,0.0149
1563.00,0.0149
1562.00,0.0148
1561.00,0.0148
1560.00,0.0149
1559.00,0.0149
1558.00,0.0149
1557.00,0.0149
1556.00,0.0150
1555.00,0.0150
1554.00,0.0150
1553.00,0.0150
1552.00,0.0150
1551.00,0.0150
1550.00,0.0150
1549.00,0.0150
1548.00,0.0150
1547.00,0.0150
1546.00,0.0150
1545.00,0.0149
1544.00,0.0149
1543.00,0.0149
1542.00,0.0150
1541.00,0.0150
1540.00,0.0150
1539.00,0.0150
1538.00,0.0150
1537.00,0.0150
1536.00,0.0150
1535.00,0.0150
1534.00,0.0150
1533.00,0.0150
1532.00,0.0150
1531.00,0.0150
1530.00,0.0151
1529.00,0.0150
1528.00,0.0150
1527.00,0.0150
1526.00,0.0151
1525.00,0.0151
1524.00,0.0151
1523.00,0.0151
1522.00,0.0150
1521.00,0.0150
1520.00,0.0150
1519.00,0.0150
1518.00,0.0151
1517.00,0.0151
1516.00,0.0151
1515.00,0.0151
1514.00,0.0151
1513.00,0.0151
1512.00,0.0151
1511.00,0.0150
1510.00,0.0151
1509.00,0.0151
1508.00,0.0151
1507.00,0.0151
1506.00,0.0151
1505.00,0.0150
1504.00,0.0150
1503.00,0.0150
1502.00,0.0150
1501.00,0.0150
1500.00,0.0149
1499.00,0.0149
1498.00,0.0149
1497.00,0.0149
1496.00,0.0148
1495.00,0.0148
1494.00,0.0148
1493.00,0.0148
1492.00,0.0148
1491.00,0.0148
1490.00,0.0148
1489.00,0.0148
1488.00,0.0148
1487.00,0.0148
1486.00,0.0149
1485.00,0.0148
1484.00,0.0148
1483.00,0.0148
1482.00,0.0149
1481.00,0.0149
1480.00,0.0149
1479.00,0.0149
1478.00,0.0149
1477.00,0.0149
1476.00,0.0149
1475.00,0.0150
1474.00,0.0150
1473.00,0.0150
1472.00,0.0150
1471.00,0.0149
1470.00,0.0149
1469.00,0.0149
1468.00,0.0149
1467.00,0.0149
1466.00,0.0149
1465.00,0.0149
1464.00,0.0149
1463.00,0.0149
1462.00,0.0149
1461.00,0.0149
1460.00,0.0149
1459.00,0.0148
1458.00,0.0149
1457.00,0.0149
1456.00,0.0149
1455.00,0.0148
1454.00,0.0148
1453.00,0.0148
1452.00,0.0148
1451.00,0.0147
1450.00,0.0147
1449.00,0.0147
1448.00,0.0147
1447.00,0.0147
1446.00,0.0148
1445.00,0.0148
1444.00,0.0148
1443.00,0.0148
1442.00,0.0148
1441.00,0.0148
1440.00,0.0148
1439.00,0.0148
1438.00,0.0148
1437.00,0.0148
1436.00,0.0148
1435.00,0.0148
1434.00,0.0148
1433.00,0.0149
1432.00,0.0149
1431.00,0.0148
1430.00,0.0148
1429.00,0.0148
1428.00,0.0148
1427.00,0.0148
1426.00,0.0148
1425.00,0.0149
1424.00,0.0149
1423.00,0.0148
1422.00,0.0148
1421.00,0.0149
1420.00,0.0148
1419.00,0.0148
1418.00,0.0148
1417.00,0.0148
1416.00,0.0148
1415.00,0.0148
1414.00,0.0147
1413.00,0.0147
1412.00,0.0147
1411.00,0.0146
1410.00,0.0146
1409.00,0.0146
1408.00,0.0146
1407.00,0.0146
1406.00,0.0146
1405.00,0.0146
1404.00,0.0146
1403.00,0.0146
1402.00,0.0146
1401.00,0.0146
1400.00,0.0146
1399.00,0.0146
1398.00,0.0146
1397.00,0.0146
1396.00,0.0146
1395.00,0.0145
1394.00,0.0145
1393.00,0.0146
1392.00,0.0146
1391.00,0.0146
1390.00,0.0146
1389.00,0.0146
1388.00,0.0146
1387.00,0.0146
1386.00,0.0146
1385.00,0.0146
1384.00,0.0146
1383.00,0.0146
1382.00,0.0146
1381.00,0.0146
1380.00,0.0146
1379.00,0.0146
1378.00,0.0146
1377.00,0.0146
1376.00,0.0147
1375.00,0.0147
1374.00,0.0146
1373.00,0.0147
1372.00,0.0147
1371.00,0.0147
1370.00,0.0147
1369.00,0.0147
1368.00,0.0147
1367.00,0.0147
1366.00,0.0147
1365.00,0.0147
1364.00,0.0147
1363.00,0.0147
1362.00,0.0147
1361.00,0.0147
1360.00,0.0147
1359.00,0.0147
1358.00,0.0147
1357.00,0.0147
1356.00,0.0147
1355.00,0.0147
1354.00,0.0147
1353.00,0.0147
1352.00,0.0147
1351.00,0.0147
1350.00,0.0147
1349.00,0.0147
1348.00,0.0147
1347.00,0.0147
1346.00,0.0147
1345.00,0.0147
1344.00,0.0147
1343.00,0.0147
1342.00,0.0147
1341.00,0.0147
1340.00,0.0147
1339.00,0.0146
1338.00,0.0146
1337.00,0.0147
1336.00,0.0147
1335.00,0.0147
1334.00,0.0147
1333.00,0.0147
1332.00,0.0147
1331.00,0.0147
1330.00,0.0146
1329.00,0.0147
1328.00,0.0147
1327.00,0.0147
1326.00,0.0147
1325.00,0.0147
1324.00,0.0147
1323.00,0.0147
1322.00,0.0146
1321.00,0.0146
1320.00,0.0147
1319.00,0.0147
1318.00,0.0146
1317.00,0.0146
1316.00,0.0146
1315.00,0.0146
1314.00,0.0146
1313.00,0.0146
1312.00,0.0146
1311.00,0.0146
1310.00,0.0146
1309.00,0.0146
1308.00,0.0146
1307.00,0.0146
1306.00,0.0146
1305.00,0.0146
1304.00,0.0146
1303.00,0.0146
1302.00,0.0146
1301.00,0.0146
1300.00,0.0146
1299.00,0.0146
1298.00,0.0146
1297.00,0.0146
1296.00,0.0146
1295.00,0.0146
1294.00,0.0145
1293.00,0.0146
1292.00,0.0146
1291.00,0.0146
1290.00,0.0145
1289.00,0.0145
1288.00,0.0145
1287.00,0.0145
1286.00,0.0145
1285.00,0.0145
1284.00,0.0145
1283.00,0.0145
1282.00,0.0145
1281.00,0.0145
1280.00,0.0145
1279.00,0.0145
1278.00,0.0145
1277.00,0.0145
1276.00,0.0145
1275.00,0.0145
1274.00,0.0145
1273.00,0.0145
1272.00,0.0145
1271.00,0.0145
1270.00,0.0145
1269.00,0.0145
1268.00,0.0145
1267.00,0.0145
1266.00,0.0144
1265.00,0.0144
1264.00,0.0144
1263.00,0.0144
1262.00,0.0144
1261.00,0.0143
1260.00,0.0143
1259.00,0.0143
1258.00,0.0143
1257.00,0.0143
1256.00,0.0143
1255.00,0.0143
1254.00,0.0143
1253.00,0.0143
1252.00,0.0143
1251.00,0.0142
1250.00,0.0142
1249.00,0.0142
1248.00,0.0143
1247.00,0.0143
1246.00,0.0143
1245.00,0.0143
1244.00,0.0143
1243.00,0.0143
1242.00,0.0142
1241.00,0.0142
1240.00,0.0143
1239.00,0.0143
1238.00,0.0143
1237.00,0.0143
1236.00,0.0143
1235.00,0.0143
1234.00,0.0143
1233.00,0.0143
1232.00,0.0143
1231.00,0.0142
1230.00,0.0143
1229.00,0.0143
1228.00,0.0143
1227.00,0.0143
1226.00,0.0143
1225.00,0.0143
1224.00,0.0143
1223.00,0.0143
1222.00,0.0143
1221.00,0.0143
1220.00,0.0143
1219.00,0.0143
1218.00,0.0143
1217.00,0.0143
1216.00,0.0143
1215.00,0.0143
1214.00,0.0143
1213.00,0.0143
1212.00,0.0144
1211.00,0.0144
1210.00,0.0144
1209.00,0.0144
1208.00,0.0144
1207.00,0.0144
1206.00,0.0143
1205.00,0.0143
1204.00,0.0143
1203.00,0.0143
1202.00,0.0143
1201.00,0.0143
1200.00,0.0143
1199.00,0.0143
1198.00,0.0143
1197.00,0.0143
1196.00,0.0143
1195.00,0.0143
1194.00,0.0143
1193.00,0.0143
1192.00,0.0143
1191.00,0.0143
1190.00,0.0143
1189.00,0.0143
1188.00,0.0143
1187.00,0.0143
1186.00,0.0143
1185.00,0.0143
1184.00,0.0143
1183.00,0.0143
1182.00,0.0143
1181.00,0.0143
1180.00,0.0143
1179.00,0.0143
1178.00,0.0143
1177.00,0.0143
1176.00,0.0143
1175.00,0.0143
1174.00,0.0143
1173.00,0.0143
1172.00,0.0143
1171.00,0.0143
1170.00,0.0143
1169.00,0.0143
1168.00,0.0143
1167.00,0.0143
1166.00,0.0143
1165.00,0.0143
1164.00,0.0143
1163.00,0.0143
1162.00,0.0142
1161.00,0.0142
1160.00,0.0143
1159.00,0.0143
1158.00,0.0143
1157.00,0.0142
1156.00,0.0142
1155.00,0.0142
1154.00,0.0142
1153.00,0.0142
1152.00,0.0142
1151.00,0.0142
1150.00,0.0142
1149.00,0.0142
1148.00,0.0142
1147.00,0.0142
1146.00,0.0142
1145.00,0.0142
1144.00,0.0142
1143.00,0.0142
1142.00,0.0142
1141.00,0.0142
1140.00,0.0142
1139.00,0.0142
1138.00,0.0142
1137.00,0.0142
1136.00,0.0142
1135.00,0.0142
1134.00,0.0142
1133.00,0.0141
1132.00,0.0142
1131.00,0.0141
1130.00,0.0141
1129.00,0.0141
1128.00,0.0141
1127.00,0.0141
1126.00,0.0141
1125.00,0.0141
1124.00,0.0141
1123.00,0.0141
1122.00,0.0141
1121.00,0.0141
1120.00,0.0141
1119.00,0.0141
1118.00,0.0141
1117.00,0.0141
1116.00,0.0141
1115.00,0.0141
1114.00,0.0141
1113.00,0.0141
1112.00,0.0141
1111.00,0.0140
1110.00,0.0140
1109.00,0.0140
1108.00,0.0140
1107.00,0.0140
1106.00,0.0139
1105.00,0.0139
1104.00,0.0139
1103.00,0.0139
1102.00,0.0139
1101.00,0.0139
1100.00,0.0139
1099.00,0.0139
1098.00,0.0139
1097.00,0.0139
1096.00,0.0139
1095.00,0.0139
1094.00,0.0138
1093.00,0.0138
1092.00,0.0138
1091.00,0.0137
1090.00,0.0137
1089.00,0.0136
1088.00,0.0136
1087.00,0.0136
1086.00,0.0135
1085.00,0.0135
1084.00,0.0135
1083.00,0.0135
1082.00,0.0134
1081.00,0.0134
1080.00,0.0133
1079.00,0.0133
1078.00,0.0133
1077.00,0.0133
1076.00,0.0133
1075.00,0.0133
1074.00,0.0133
1073.00,0.0133
1072.00,0.0133
1071.00,0.0133
1070.00,0.0133
1069.00,0.0133
1068.00,0.0133
1067.00,0.0132
1066.00,0.0132
1065.00,0.0133
1064.00,0.0133
1063.00,0.0134
1062.00,0.0134
1061.00,0.0134
1060.00,0.0134
1059.00,0.0134
1058.00,0.0133
1057.00,0.0133
1056.00,0.0133
1055.00,0.0133
1054.00,0.0133
1053.00,0.0133
1052.00,0.0133
1051.00,0.0133
1050.00,0.0133
1049.00,0.0133
1048.00,0.0133
1047.00,0.0134
1046.00,0.0134
1045.00,0.0134
1044.00,0.0134
1043.00,0.0135
1042.00,0.0135
1041.00,0.0136
1040.00,0.0136
1039.00,0.0136
1038.00,0.0136
1037.00,0.0137
1036.00,0.0137
1035.00,0.0138
1034.00,0.0138
1033.00,0.0139
1032.00,0.0139
1031.00,0.0139
1030.00,0.0139
1029.00,0.0139
1028.00,0.0139
1027.00,0.0139
1026.00,0.0140
1025.00,0.0140
1024.00,0.0141
1023.00,0.0141
1022.00,0.0141
1021.00,0.0141
1020.00,0.0141
1019.00,0.0142
1018.00,0.0142
1017.00,0.0142
1016.00,0.0142
1015.00,0.0142
1014.00,0.0142
1013.00,0.0143
1012.00,0.0143
1011.00,0.0143
1010.00,0.0143
1009.00,0.0144
1008.00,0.0144
1007.00,0.0144
1006.00,0.0144
1005.00,0.0145
1004.00,0.0145
1003.00,0.0145
1002.00,0.0145
1001.00,0.0145
1000.00,0.0145
999.00,0.0145
998.00,0.0145
997.00,0.0145
996.00,0.0145
995.00,0.0145
994.00,0.0145
993.00,0.0146
992.00,0.0146
991.00,0.0146
990.00,0.0146
989.00,0.0146
988.00,0.0146
987.00,0.0146
986.00,0.0146
985.00,0.0146
984.00,0.0146
983.00,0.0146
982.00,0.0146
981.00,0.0146
980.00,0.0146
979.00,0.0146
978.00,0.0146
977.00,0.0147
976.00,0.0147
975.00,0.0147
974.00,0.0147
973.00,0.0147
972.00,0.0147
971.00,0.0147
970.00,0.0147
969.00,0.0147
968.00,0.0147
967.00,0.0147
966.00,0.0147
965.00,0.0147
964.00,0.0147
963.00,0.0147
962.00,0.0147
961.00,0.0147
960.00,0.0147
959.00,0.0147
958.00,0.0147
957.00,0.0147
956.00,0.0147
955.00,0.0147
954.00,0.0147
953.00,0.0147
952.00,0.0147
951.00,0.0147
950.00,0.0147
949.00,0.0147
948.00,0.0147
947.00,0.0147
946.00,0.0147
945.00,0.0147
944.00,0.0147
943.00,0.0147
942.00,0.0147
941.00,0.0147
940.00,0.0147
939.00,0.0147
938.00,0.0147
937.00,0.0147
936.00,0.0147
935.00,0.0147
934.00,0.0147
933.00,0.0147
932.00,0.0147
931.00,0.0147
930.00,0.0147
929.00,0.0147
928.00,0.0147
927.00,0.0147
926.00,0.0147
925.00,0.0147
924.00,0.0147
923.00,0.0147
922.00,0.0147
921.00,0.0147
920.00,0.0147
919.00,0.0147
918.00,0.0147
917.00,0.0147
916.00,0.0147
915.00,0.0147
914.00,0.0147
913.00,0.0147
912.00,0.0147
911.00,0.0147
910.00,0.0146
909.00,0.0146
908.00,0.0146
907.00,0.0146
906.00,0.0146
905.00,0.0146
904.00,0.0145
903.00,0.0145
902.00,0.0145
901.00,0.0145
900.00,0.0146
899.00,0.0146
898.00,0.0146
897.00,0.0145
896.00,0.0145
895.00,0.0145
894.00,0.0145
893.00,0.0145
892.00,0.0145
891.00,0.0145
890.00,0.0145
889.00,0.0145
888.00,0.0145
887.00,0.0145
886.00,0.0145
885.00,0.0145
884.00,0.0145
883.00,0.0145
882.00,0.0145
881.00,0.0145
880.00,0.0145
879.00,0.0145
878.00,0.0145
877.00,0.0145
876.00,0.0145
875.00,0.0145
874.00,0.0145
873.00,0.0145
872.00,0.0145
871.00,0.0145
870.00,0.0145
869.00,0.0145
868.00,0.0145
867.00,0.0145
866.00,0.0145
865.00,0.0145
864.00,0.0145
863.00,0.0145
862.00,0.0145
861.00,0.0145
860.00,0.0145
859.00,0.0145
858.00,0.0145
857.00,0.0145
856.00,0.0145
855.00,0.0145
854.00,0.0145
853.00,0.0145
852.00,0.0145
851.00,0.0145
850.00,0.0145
849.00,0.0145
848.00,0.0145
847.00,0.0145
846.00,0.0145
845.00,0.0144
844.00,0.0144
843.00,0.0144
842.00,0.0144
841.00,0.0144
840.00,0.0144
839.00,0.0144
838.00,0.0144
837.00,0.0144
836.00,0.0144
835.00,0.0144
834.00,0.0144
833.00,0.0144
832.00,0.0143
831.00,0.0143
830.00,0.0143
829.00,0.0143
828.00,0.0143
827.00,0.0143
826.00,0.0143
825.00,0.0143
824.00,0.0143
823.00,0.0143
822.00,0.0143
821.00,0.0143
820.00,0.0143
819.00,0.0143
818.00,0.0142
817.00,0.0142
816.00,0.0142
815.00,0.0142
814.00,0.0142
813.00,0.0142
812.00,0.0142
811.00,0.0142
810.00,0.0142
809.00,0.0142
808.00,0.0142
807.00,0.0142
806.00,0.0142
805.00,0.0142
804.00,0.0142
803.00,0.0142
802.00,0.0142
801.00,0.0142
800.00,0.0142
799.00,0.0142
798.00,0.0141
797.00,0.0141
796.00,0.0141
795.00,0.0141
794.00,0.0141
793.00,0.0141
792.00,0.0141
791.00,0.0142
790.00,0.0142
789.00,0.0142
788.00,0.0142
787.00,0.0142
786.00,0.0142
785.00,0.0142
784.00,0.0142
783.00,0.0142
782.00,0.0142
781.00,0.0142
780.00,0.0142
779.00,0.0142
778.00,0.0142
777.00,0.0142
776.00,0.0142
775.00,0.0142
774.00,0.0142
773.00,0.0142
772.00,0.0142
771.00,0.0142
770.00,0.0141
769.00,0.0141
768.00,0.0141
767.00,0.0141
766.00,0.0141
765.00,0.0141
764.00,0.0141
763.00,0.0141
762.00,0.0141
761.00,0.0141
760.00,0.0141
759.00,0.0141
758.00,0.0141
757.00,0.0141
756.00,0.0140
755.00,0.0140
754.00,0.0140
753.00,0.0140
752.00,0.0140
751.00,0.0140
750.00,0.0140
749.00,0.0141
748.00,0.0141
747.00,0.0141
746.00,0.0141
745.00,0.0140
744.00,0.0140
743.00,0.0140
742.00,0.0140
741.00,0.0140
740.00,0.0140
739.00,0.0140
738.00,0.0140
737.00,0.0140
736.00,0.0140
735.00,0.0140
734.00,0.0140
733.00,0.0140
732.00,0.0140
731.00,0.0140
730.00,0.0140
729.00,0.0140
728.00,0.0140
727.00,0.0140
726.00,0.0140
725.00,0.0140
724.00,0.0140
723.00,0.0140
722.00,0.0140
721.00,0.0140
720.00,0.0140
719.00,0.0140
718.00,0.0140
717.00,0.0139
716.00,0.0139
715.00,0.0139
714.00,0.0139
713.00,0.0139
712.00,0.0139
711.00,0.0139
710.00,0.0139
709.00,0.0139
708.00,0.0139
707.00,0.0139
706.00,0.0138
705.00,0.0138
704.00,0.0138
703.00,0.0139
702.00,0.0139
701.00,0.0139
700.00,0.0139
699.00,0.0138
698.00,0.0138
697.00,0.0138
696.00,0.0138
695.00,0.0138
694.00,0.0138
693.00,0.0138
692.00,0.0138
691.00,0.0137
690.00,0.0137
689.00,0.0137
688.00,0.0137
687.00,0.0136
686.00,0.0136
685.00,0.0136
684.00,0.0136
683.00,0.0136
682.00,0.0136
681.00,0.0136
680.00,0.0135
679.00,0.0135
678.00,0.0135
677.00,0.0135
676.00,0.0135
675.00,0.0135
674.00,0.0135
673.00,0.0134
672.00,0.0133
671.00,0.0131
670.00,0.0129
669.00,0.0126
668.00,0.0126
667.00,0.0127
666.00,0.0128
665.00,0.0130
664.00,0.0132
663.00,0.0133
662.00,0.0133
661.00,0.0133
660.00,0.0133
659.00,0.0133
658.00,0.0133
657.00,0.0133
656.00,0.0133
655.00,0.0133
654.00,0.0132
653.00,0.0133
652.00,0.0133
651.00,0.0133
650.00,0.0133
649.00,0.0133
648.00,0.0134
647.00,0.0134
646.00,0.0133
645.00,0.0133
644.00,0.0133
643.00,0.0133
642.00,0.0133
641.00,0.0133
640.00,0.0133
639.00,0.0133
638.00,0.0133
637.00,0.0133
636.00,0.0134
635.00,0.0133
634.00,0.0133
633.00,0.0132
632.00,0.0132
631.00,0.0132
630.00,0.0131
629.00,0.0131
628.00,0.0131
627.00,0.0132
626.00,0.0131
625.00,0.0131
624.00,0.0130
623.00,0.0130
622.00,0.0129
621.00,0.0129
620.00,0.0129
619.00,0.0130
618.00,0.0130
617.00,0.0130
616.00,0.0130
615.00,0.0129
614.00,0.0129
613.00,0.0128
612.00,0.0128
611.00,0.0128
610.00,0.0128
609.00,0.0128
608.00,0.0128
607.00,0.0129
606.00,0.0128
605.00,0.0129
604.00,0.0129
603.00,0.0129
602.00,0.0128
601.00,0.0128
600.00,0.0129
599.00,0.0129
598.00,0.0129
597.00,0.0129
596.00,0.0129
595.00,0.0129
594.00,0.0129
593.00,0.0129
592.00,0.0129
591.00,0.0129
590.00,0.0129
589.00,0.0129
588.00,0.0129
587.00,0.0128
586.00,0.0128
585.00,0.0128
584.00,0.0128
583.00,0.0128
582.00,0.0128
581.00,0.0128
580.00,0.0127
579.00,0.0127
578.00,0.0127
577.00,0.0127
576.00,0.0127
575.00,0.0127
574.00,0.0126
573.00,0.0125
572.00,0.0125
571.00,0.0125
570.00,0.0125
569.00,0.0125
568.00,0.0125
567.00,0.0125
566.00,0.0125
565.00,0.0124
564.00,0.0124
563.00,0.0125
562.00,0.0125
561.00,0.0125
560.00,0.0125
559.00,0.0124
558.00,0.0124
557.00,0.0124
556.00,0.0125
555.00,0.0125
554.00,0.0125
553.00,0.0125
552.00,0.0126
551.00,0.0126
550.00,0.0125
549.00,0.0125
548.00,0.0126
547.00,0.0126
546.00,0.0125
545.00,0.0125
544.00,0.0126
543.00,0.0126
542.00,0.0125
541.00,0.0125
540.00,0.0126
539.00,0.0126
538.00,0.0126
537.00,0.0126
536.00,0.0127
535.00,0.0127
534.00,0.0127
533.00,0.0127
532.00,0.0127
531.00,0.0126
530.00,0.0126
529.00,0.0126
528.00,0.0126
527.00,0.0126
526.00,0.0126
525.00,0.0126
524.00,0.0126
523.00,0.0126
522.00,0.0125
521.00,0.0125
520.00,0.0124
519.00,0.0124
518.00,0.0125
517.00,0.0125
516.00,0.0125
515.00,0.0125
514.00,0.0125
513.00,0.0125
512.00,0.0125
511.00,0.0124
510.00,0.0124
509.00,0.0124
508.00,0.0124
507.00,0.0125
506.00,0.0125
505.00,0.0125
504.00,0.0125
503.00,0.0125
502.00,0.0125
501.00,0.0125
500.00,0.0124
