Created as New Dataset,Sample 354 By Analyst Date Tuesday, February 04 2025
cm-1,A
4000.00,-0.0026
3999.00,-0.0026
3998.00,-0.0026
3997.00,-0.0026
3996.00,-0.0026
3995.00,-0.0026
3994.00,-0.0026
3993.00,-0.0026
3992.00,-0.0026
3991.00,-0.0026
3990.00,-0.0026
3989.00,-0.0026
3988.00,-0.0026
3987.00,-0.0026
3986.00,-0.0026
3985.00,-0.0026
3984.00,-0.0026
3983.00,-0.0026
3982.00,-0.0026
3981.00,-0.0026
3980.00,-0.0026
3979.00,-0.0026
3978.00,-0.0026
3977.00,-0.0026
3976.00,-0.0026
3975.00,-0.0026
3974.00,-0.0026
3973.00,-0.0026
3972.00,-0.0026
3971.00,-0.0026
3970.00,-0.0026
3969.00,-0.0026
3968.00,-0.0026
3967.00,-0.0026
3966.00,-0.0026
3965.00,-0.0026
3964.00,-0.0026
3963.00,-0.0026
3962.00,-0.0026
3961.00,-0.0026
3960.00,-0.0026
3959.00,-0.0026
3958.00,-0.0026
3957.00,-0.0026
3956.00,-0.0026
3955.00,-0.0026
3954.00,-0.0026
3953.00,-0.0026
3952.00,-0.0026
3951.00,-0.0025
3950.00,-0.0025
3949.00,-0.0025
3948.00,-0.0025
3947.00,-0.0024
3946.00,-0.0024
3945.00,-0.0024
3944.00,-0.0024
3943.00,-0.0025
3942.00,-0.0025
3941.00,-0.0025
3940.00,-0.0025
3939.00,-0.0025
3938.00,-0.0025
3937.00,-0.0025
3936.00,-0.0025
3935.00,-0.0025
3934.00,-0.0024
3933.00,-0.0024
3932.00,-0.0024
3931.00,-0.0024
3930.00,-0.0024
3929.00,-0.0024
3928.00,-0.0024
3927.00,-0.0025
3926.00,-0.0025
3925.00,-0.0025
3924.00,-0.0025
3923.00,-0.0024
3922.00,-0.0024
3921.00,-0.0023
3920.00,-0.0023
3919.00,-0.0023
3918.00,-0.0023
3917.00,-0.0023
3916.00,-0.0024
3915.00,-0.0024
3914.00,-0.0024
3913.00,-0.0025
3912.00,-0.0025
3911.00,-0.0025
3910.00,-0.0025
3909.00,-0.0025
3908.00,-0.0025
3907.00,-0.0024
3906.00,-0.0024
3905.00,-0.0023
3904.00,-0.0022
3903.00,-0.0021
3902.00,-0.0020
3901.00,-0.0019
3900.00,-0.0020
3899.00,-0.0021
3898.00,-0.0021
3897.00,-0.0022
3896.00,-0.0022
3895.00,-0.0023
3894.00,-0.0023
3893.00,-0.0024
3892.00,-0.0024
3891.00,-0.0024
3890.00,-0.0024
3889.00,-0.0023
3888.00,-0.0022
3887.00,-0.0021
3886.00,-0.0021
3885.00,-0.0022
3884.00,-0.0022
3883.00,-0.0022
3882.00,-0.0021
3881.00,-0.0021
3880.00,-0.0022
3879.00,-0.0023
3878.00,-0.0023
3877.00,-0.0022
3876.00,-0.0022
3875.00,-0.0022
3874.00,-0.0023
3873.00,-0.0023
3872.00,-0.0022
3871.00,-0.0021
3870.00,-0.0021
3869.00,-0.0021
3868.00,-0.0021
3867.00,-0.0021
3866.00,-0.0020
3865.00,-0.0021
3864.00,-0.0022
3863.00,-0.0022
3862.00,-0.0022
3861.00,-0.0021
3860.00,-0.0022
3859.00,-0.0022
3858.00,-0.0024
3857.00,-0.0025
3856.00,-0.0025
3855.00,-0.0025
3854.00,-0.0024
3853.00,-0.0023
3852.00,-0.0022
3851.00,-0.0022
3850.00,-0.0021
3849.00,-0.0021
3848.00,-0.0022
3847.00,-0.0022
3846.00,-0.0023
3845.00,-0.0023
3844.00,-0.0023
3843.00,-0.0022
3842.00,-0.0022
3841.00,-0.0022
3840.00,-0.0021
3839.00,-0.0021
3838.00,-0.0021
3837.00,-0.0021
3836.00,-0.0021
3835.00,-0.0021
3834.00,-0.0021
3833.00,-0.0021
3832.00,-0.0022
3831.00,-0.0022
3830.00,-0.0023
3829.00,-0.0023
3828.00,-0.0023
3827.00,-0.0023
3826.00,-0.0023
3825.00,-0.0023
3824.00,-0.0022
3823.00,-0.0021
3822.00,-0.0021
3821.00,-0.0021
3820.00,-0.0022
3819.00,-0.0022
3818.00,-0.0021
3817.00,-0.0021
3816.00,-0.0022
3815.00,-0.0023
3814.00,-0.0024
3813.00,-0.0024
3812.00,-0.0024
3811.00,-0.0024
3810.00,-0.0024
3809.00,-0.0024
3808.00,-0.0024
3807.00,-0.0023
3806.00,-0.0023
3805.00,-0.0023
3804.00,-0.0022
3803.00,-0.0022
3802.00,-0.0022
3801.00,-0.0023
3800.00,-0.0023
3799.00,-0.0022
3798.00,-0.0021
3797.00,-0.0021
3796.00,-0.0022
3795.00,-0.0023
3794.00,-0.0023
3793.00,-0.0023
3792.00,-0.0024
3791.00,-0.0024
3790.00,-0.0025
3789.00,-0.0025
3788.00,-0.0025
3787.00,-0.0025
3786.00,-0.0024
3785.00,-0.0024
3784.00,-0.0024
3783.00,-0.0024
3782.00,-0.0024
3781.00,-0.0023
3780.00,-0.0023
3779.00,-0.0024
3778.00,-0.0024
3777.00,-0.0024
3776.00,-0.0024
3775.00,-0.0024
3774.00,-0.0024
3773.00,-0.0024
3772.00,-0.0024
3771.00,-0.0023
3770.00,-0.0023
3769.00,-0.0023
3768.00,-0.0022
3767.00,-0.0022
3766.00,-0.0022
3765.00,-0.0022
3764.00,-0.0023
3763.00,-0.0023
3762.00,-0.0022
3761.00,-0.0022
3760.00,-0.0022
3759.00,-0.0022
3758.00,-0.0022
3757.00,-0.0022
3756.00,-0.0021
3755.00,-0.0021
3754.00,-0.0021
3753.00,-0.0020
3752.00,-0.0020
3751.00,-0.0019
3750.00,-0.0019
3749.00,-0.0018
3748.00,-0.0018
3747.00,-0.0018
3746.00,-0.0018
3745.00,-0.0018
3744.00,-0.0019
3743.00,-0.0019
3742.00,-0.0019
3741.00,-0.0018
3740.00,-0.0017
3739.00,-0.0017
3738.00,-0.0017
3737.00,-0.0017
3736.00,-0.0017
3735.00,-0.0018
3734.00,-0.0018
3733.00,-0.0018
3732.00,-0.0019
3731.00,-0.0019
3730.00,-0.0020
3729.00,-0.0020
3728.00,-0.0020
3727.00,-0.0020
3726.00,-0.0021
3725.00,-0.0021
3724.00,-0.0021
3723.00,-0.0021
3722.00,-0.0021
3721.00,-0.0021
3720.00,-0.0022
3719.00,-0.0022
3718.00,-0.0022
3717.00,-0.0022
3716.00,-0.0022
3715.00,-0.0022
3714.00,-0.0021
3713.00,-0.0021
3712.00,-0.0020
3711.00,-0.0020
3710.00,-0.0020
3709.00,-0.0020
3708.00,-0.0021
3707.00,-0.0022
3706.00,-0.0022
3705.00,-0.0023
3704.00,-0.0023
3703.00,-0.0023
3702.00,-0.0024
3701.00,-0.0024
3700.00,-0.0024
3699.00,-0.0023
3698.00,-0.0023
3697.00,-0.0023
3696.00,-0.0023
3695.00,-0.0023
3694.00,-0.0023
3693.00,-0.0023
3692.00,-0.0023
3691.00,-0.0023
3690.00,-0.0022
3689.00,-0.0022
3688.00,-0.0022
3687.00,-0.0022
3686.00,-0.0022
3685.00,-0.0022
3684.00,-0.0022
3683.00,-0.0022
3682.00,-0.0022
3681.00,-0.0022
3680.00,-0.0022
3679.00,-0.0022
3678.00,-0.0021
3677.00,-0.0020
3676.00,-0.0019
3675.00,-0.0019
3674.00,-0.0019
3673.00,-0.0019
3672.00,-0.0018
3671.00,-0.0018
3670.00,-0.0019
3669.00,-0.0020
3668.00,-0.0021
3667.00,-0.0021
3666.00,-0.0022
3665.00,-0.0022
3664.00,-0.0023
3663.00,-0.0023
3662.00,-0.0024
3661.00,-0.0024
3660.00,-0.0024
3659.00,-0.0023
3658.00,-0.0023
3657.00,-0.0023
3656.00,-0.0022
3655.00,-0.0022
3654.00,-0.0021
3653.00,-0.0020
3652.00,-0.0019
3651.00,-0.0018
3650.00,-0.0018
3649.00,-0.0017
3648.00,-0.0017
3647.00,-0.0017
3646.00,-0.0018
3645.00,-0.0019
3644.00,-0.0020
3643.00,-0.0021
3642.00,-0.0022
3641.00,-0.0023
3640.00,-0.0023
3639.00,-0.0023
3638.00,-0.0023
3637.00,-0.0023
3636.00,-0.0023
3635.00,-0.0022
3634.00,-0.0022
3633.00,-0.0022
3632.00,-0.0021
3631.00,-0.0020
3630.00,-0.0019
3629.00,-0.0019
3628.00,-0.0020
3627.00,-0.0020
3626.00,-0.0020
3625.00,-0.0020
3624.00,-0.0021
3623.00,-0.0022
3622.00,-0.0023
3621.00,-0.0023
3620.00,-0.0023
3619.00,-0.0022
3618.00,-0.0021
3617.00,-0.0020
3616.00,-0.0020
3615.00,-0.0019
3614.00,-0.0019
3613.00,-0.0019
3612.00,-0.0019
3611.00,-0.0019
3610.00,-0.0018
3609.00,-0.0019
3608.00,-0.0020
3607.00,-0.0021
3606.00,-0.0021
3605.00,-0.0022
3604.00,-0.0022
3603.00,-0.0022
3602.00,-0.0023
3601.00,-0.0023
3600.00,-0.0023
3599.00,-0.0023
3598.00,-0.0022
3597.00,-0.0022
3596.00,-0.0022
3595.00,-0.0022
3594.00,-0.0022
3593.00,-0.0022
3592.00,-0.0022
3591.00,-0.0021
3590.00,-0.0020
3589.00,-0.0020
3588.00,-0.0020
3587.00,-0.0021
3586.00,-0.0021
3585.00,-0.0021
3584.00,-0.0021
3583.00,-0.0022
3582.00,-0.0023
3581.00,-0.0023
3580.00,-0.0024
3579.00,-0.0024
3578.00,-0.0024
3577.00,-0.0024
3576.00,-0.0024
3575.00,-0.0024
3574.00,-0.0024
3573.00,-0.0024
3572.00,-0.0023
3571.00,-0.0022
3570.00,-0.0021
3569.00,-0.0021
3568.00,-0.0020
3567.00,-0.0020
3566.00,-0.0020
3565.00,-0.0021
3564.00,-0.0021
3563.00,-0.0021
3562.00,-0.0022
3561.00,-0.0023
3560.00,-0.0024
3559.00,-0.0024
3558.00,-0.0024
3557.00,-0.0024
3556.00,-0.0024
3555.00,-0.0024
3554.00,-0.0024
3553.00,-0.0024
3552.00,-0.0024
3551.00,-0.0024
3550.00,-0.0023
3549.00,-0.0023
3548.00,-0.0023
3547.00,-0.0023
3546.00,-0.0023
3545.00,-0.0023
3544.00,-0.0023
3543.00,-0.0023
3542.00,-0.0024
3541.00,-0.0024
3540.00,-0.0024
3539.00,-0.0024
3538.00,-0.0025
3537.00,-0.0025
3536.00,-0.0025
3535.00,-0.0025
3534.00,-0.0025
3533.00,-0.0025
3532.00,-0.0025
3531.00,-0.0024
3530.00,-0.0024
3529.00,-0.0024
3528.00,-0.0024
3527.00,-0.0024
3526.00,-0.0023
3525.00,-0.0023
3524.00,-0.0024
3523.00,-0.0024
3522.00,-0.0024
3521.00,-0.0024
3520.00,-0.0024
3519.00,-0.0025
3518.00,-0.0025
3517.00,-0.0025
3516.00,-0.0025
3515.00,-0.0025
3514.00,-0.0025
3513.00,-0.0025
3512.00,-0.0025
3511.00,-0.0025
3510.00,-0.0025
3509.00,-0.0025
3508.00,-0.0025
3507.00,-0.0025
3506.00,-0.0025
3505.00,-0.0025
3504.00,-0.0025
3503.00,-0.0025
3502.00,-0.0025
3501.00,-0.0025
3500.00,-0.0025
3499.00,-0.0025
3498.00,-0.0025
3497.00,-0.0025
3496.00,-0.0026
3495.00,-0.0026
3494.00,-0.0026
3493.00,-0.0026
3492.00,-0.0026
3491.00,-0.0026
3490.00,-0.0026
3489.00,-0.0026
3488.00,-0.0026
3487.00,-0.0026
3486.00,-0.0026
3485.00,-0.0026
3484.00,-0.0026
3483.00,-0.0026
3482.00,-0.0026
3481.00,-0.0026
3480.00,-0.0026
3479.00,-0.0026
3478.00,-0.0026
3477.00,-0.0026
3476.00,-0.0026
3475.00,-0.0026
3474.00,-0.0026
3473.00,-0.0026
3472.00,-0.0026
3471.00,-0.0026
3470.00,-0.0026
3469.00,-0.0026
3468.00,-0.0026
3467.00,-0.0026
3466.00,-0.0026
3465.00,-0.0026
3464.00,-0.0026
3463.00,-0.0026
3462.00,-0.0026
3461.00,-0.0026
3460.00,-0.0026
3459.00,-0.0026
3458.00,-0.0026
3457.00,-0.0026
3456.00,-0.0026
3455.00,-0.0026
3454.00,-0.0026
3453.00,-0.0026
3452.00,-0.0026
3451.00,-0.0026
3450.00,-0.0026
3449.00,-0.0026
3448.00,-0.0026
3447.00,-0.0026
3446.00,-0.0026
3445.00,-0.0026
3444.00,-0.0026
3443.00,-0.0026
3442.00,-0.0026
3441.00,-0.0026
3440.00,-0.0026
3439.00,-0.0026
3438.00,-0.0026
3437.00,-0.0026
3436.00,-0.0026
3435.00,-0.0026
3434.00,-0.0026
3433.00,-0.0026
3432.00,-0.0026
3431.00,-0.0026
3430.00,-0.0026
3429.00,-0.0026
3428.00,-0.0026
3427.00,-0.0026
3426.00,-0.0026
3425.00,-0.0026
3424.00,-0.0026
3423.00,-0.0026
3422.00,-0.0026
3421.00,-0.0026
3420.00,-0.0026
3419.00,-0.0026
3418.00,-0.0026
3417.00,-0.0026
3416.00,-0.0026
3415.00,-0.0026
3414.00,-0.0026
3413.00,-0.0026
3412.00,-0.0026
3411.00,-0.0026
3410.00,-0.0026
3409.00,-0.0026
3408.00,-0.0026
3407.00,-0.0026
3406.00,-0.0026
3405.00,-0.0026
3404.00,-0.0026
3403.00,-0.0026
3402.00,-0.0026
3401.00,-0.0026
3400.00,-0.0026
3399.00,-0.0026
3398.00,-0.0026
3397.00,-0.0026
3396.00,-0.0026
3395.00,-0.0026
3394.00,-0.0026
3393.00,-0.0026
3392.00,-0.0026
3391.00,-0.0026
3390.00,-0.0026
3389.00,-0.0026
3388.00,-0.0026
3387.00,-0.0026
3386.00,-0.0026
3385.00,-0.0026
3384.00,-0.0026
3383.00,-0.0026
3382.00,-0.0026
3381.00,-0.0026
3380.00,-0.0026
3379.00,-0.0026
3378.00,-0.0026
3377.00,-0.0026
3376.00,-0.0026
3375.00,-0.0026
3374.00,-0.0026
3373.00,-0.0026
3372.00,-0.0026
3371.00,-0.0026
3370.00,-0.0026
3369.00,-0.0026
3368.00,-0.0026
3367.00,-0.0026
3366.00,-0.0026
3365.00,-0.0026
3364.00,-0.0026
3363.00,-0.0026
3362.00,-0.0026
3361.00,-0.0026
3360.00,-0.0026
3359.00,-0.0026
3358.00,-0.0026
3357.00,-0.0026
3356.00,-0.0026
3355.00,-0.0026
3354.00,-0.0026
3353.00,-0.0026
3352.00,-0.0026
3351.00,-0.0026
3350.00,-0.0026
3349.00,-0.0026
3348.00,-0.0026
3347.00,-0.0026
3346.00,-0.0026
3345.00,-0.0026
3344.00,-0.0026
3343.00,-0.0026
3342.00,-0.0026
3341.00,-0.0026
3340.00,-0.0026
3339.00,-0.0026
3338.00,-0.0026
3337.00,-0.0026
3336.00,-0.0026
3335.00,-0.0026
3334.00,-0.0026
3333.00,-0.0026
3332.00,-0.0026
3331.00,-0.0026
3330.00,-0.0026
3329.00,-0.0026
3328.00,-0.0026
3327.00,-0.0026
3326.00,-0.0026
3325.00,-0.0026
3324.00,-0.0026
3323.00,-0.0026
3322.00,-0.0026
3321.00,-0.0026
3320.00,-0.0026
3319.00,-0.0026
3318.00,-0.0026
3317.00,-0.0026
3316.00,-0.0026
3315.00,-0.0026
3314.00,-0.0026
3313.00,-0.0026
3312.00,-0.0026
3311.00,-0.0026
3310.00,-0.0026
3309.00,-0.0026
3308.00,-0.0026
3307.00,-0.0026
3306.00,-0.0026
3305.00,-0.0026
3304.00,-0.0026
3303.00,-0.0026
3302.00,-0.0026
3301.00,-0.0026
3300.00,-0.0026
3299.00,-0.0026
3298.00,-0.0026
3297.00,-0.0026
3296.00,-0.0026
3295.00,-0.0026
3294.00,-0.0026
3293.00,-0.0026
3292.00,-0.0026
3291.00,-0.0026
3290.00,-0.0026
3289.00,-0.0026
3288.00,-0.0026
3287.00,-0.0026
3286.00,-0.0026
3285.00,-0.0026
3284.00,-0.0026
3283.00,-0.0026
3282.00,-0.0026
3281.00,-0.0026
3280.00,-0.0026
3279.00,-0.0026
3278.00,-0.0026
3277.00,-0.0026
3276.00,-0.0026
3275.00,-0.0026
3274.00,-0.0026
3273.00,-0.0026
3272.00,-0.0026
3271.00,-0.0026
3270.00,-0.0026
3269.00,-0.0026
3268.00,-0.0026
3267.00,-0.0026
3266.00,-0.0026
3265.00,-0.0026
3264.00,-0.0026
3263.00,-0.0026
3262.00,-0.0026
3261.00,-0.0026
3260.00,-0.0026
3259.00,-0.0026
3258.00,-0.0026
3257.00,-0.0026
3256.00,-0.0026
3255.00,-0.0026
3254.00,-0.0026
3253.00,-0.0026
3252.00,-0.0026
3251.00,-0.0026
3250.00,-0.0026
3249.00,-0.0026
3248.00,-0.0026
3247.00,-0.0026
3246.00,-0.0026
3245.00,-0.0026
3244.00,-0.0026
3243.00,-0.0026
3242.00,-0.0026
3241.00,-0.0026
3240.00,-0.0026
3239.00,-0.0026
3238.00,-0.0026
3237.00,-0.0026
3236.00,-0.0026
3235.00,-0.0026
3234.00,-0.0026
3233.00,-0.0026
3232.00,-0.0026
3231.00,-0.0026
3230.00,-0.0026
3229.00,-0.0026
3228.00,-0.0026
3227.00,-0.0026
3226.00,-0.0026
3225.00,-0.0026
3224.00,-0.0026
3223.00,-0.0026
3222.00,-0.0026
3221.00,-0.0026
3220.00,-0.0026
3219.00,-0.0026
3218.00,-0.0026
3217.00,-0.0026
3216.00,-0.0026
3215.00,-0.0026
3214.00,-0.0026
3213.00,-0.0026
3212.00,-0.0026
3211.00,-0.0026
3210.00,-0.0026
3209.00,-0.0026
3208.00,-0.0026
3207.00,-0.0026
3206.00,-0.0026
3205.00,-0.0026
3204.00,-0.0026
3203.00,-0.0026
3202.00,-0.0026
3201.00,-0.0026
3200.00,-0.0026
3199.00,-0.0026
3198.00,-0.0026
3197.00,-0.0026
3196.00,-0.0026
3195.00,-0.0026
3194.00,-0.0026
3193.00,-0.0026
3192.00,-0.0026
3191.00,-0.0026
3190.00,-0.0026
3189.00,-0.0026
3188.00,-0.0026
3187.00,-0.0026
3186.00,-0.0026
3185.00,-0.0026
3184.00,-0.0026
3183.00,-0.0026
3182.00,-0.0026
3181.00,-0.0026
3180.00,-0.0025
3179.00,-0.0025
3178.00,-0.0025
3177.00,-0.0025
3176.00,-0.0025
3175.00,-0.0025
3174.00,-0.0025
3173.00,-0.0026
3172.00,-0.0026
3171.00,-0.0026
3170.00,-0.0025
3169.00,-0.0025
3168.00,-0.0025
3167.00,-0.0025
3166.00,-0.0025
3165.00,-0.0025
3164.00,-0.0025
3163.00,-0.0025
3162.00,-0.0025
3161.00,-0.0025
3160.00,-0.0025
3159.00,-0.0025
3158.00,-0.0025
3157.00,-0.0025
3156.00,-0.0025
3155.00,-0.0025
3154.00,-0.0025
3153.00,-0.0025
3152.00,-0.0025
3151.00,-0.0025
3150.00,-0.0025
3149.00,-0.0025
3148.00,-0.0025
3147.00,-0.0025
3146.00,-0.0025
3145.00,-0.0025
3144.00,-0.0025
3143.00,-0.0025
3142.00,-0.0025
3141.00,-0.0025
3140.00,-0.0025
3139.00,-0.0025
3138.00,-0.0025
3137.00,-0.0025
3136.00,-0.0025
3135.00,-0.0025
3134.00,-0.0025
3133.00,-0.0025
3132.00,-0.0025
3131.00,-0.0025
3130.00,-0.0025
3129.00,-0.0025
3128.00,-0.0025
3127.00,-0.0025
3126.00,-0.0025
3125.00,-0.0025
3124.00,-0.0025
3123.00,-0.0025
3122.00,-0.0025
3121.00,-0.0025
3120.00,-0.0025
3119.00,-0.0025
3118.00,-0.0025
3117.00,-0.0025
3116.00,-0.0025
3115.00,-0.0025
3114.00,-0.0025
3113.00,-0.0025
3112.00,-0.0025
3111.00,-0.0025
3110.00,-0.0025
3109.00,-0.0025
3108.00,-0.0025
3107.00,-0.0025
3106.00,-0.0025
3105.00,-0.0025
3104.00,-0.0025
3103.00,-0.0025
3102.00,-0.0025
3101.00,-0.0025
3100.00,-0.0025
3099.00,-0.0025
3098.00,-0.0025
3097.00,-0.0025
3096.00,-0.0025
3095.00,-0.0025
3094.00,-0.0025
3093.00,-0.0025
3092.00,-0.0025
3091.00,-0.0025
3090.00,-0.0025
3089.00,-0.0025
3088.00,-0.0025
3087.00,-0.0025
3086.00,-0.0025
3085.00,-0.0025
3084.00,-0.0025
3083.00,-0.0025
3082.00,-0.0025
3081.00,-0.0025
3080.00,-0.0024
3079.00,-0.0024
3078.00,-0.0024
3077.00,-0.0025
3076.00,-0.0025
3075.00,-0.0025
3074.00,-0.0025
3073.00,-0.0025
3072.00,-0.0025
3071.00,-0.0025
3070.00,-0.0025
3069.00,-0.0025
3068.00,-0.0025
3067.00,-0.0025
3066.00,-0.0025
3065.00,-0.0025
3064.00,-0.0025
3063.00,-0.0025
3062.00,-0.0025
3061.00,-0.0025
3060.00,-0.0025
3059.00,-0.0025
3058.00,-0.0025
3057.00,-0.0025
3056.00,-0.0025
3055.00,-0.0024
3054.00,-0.0024
3053.00,-0.0024
3052.00,-0.0024
3051.00,-0.0024
3050.00,-0.0024
3049.00,-0.0024
3048.00,-0.0024
3047.00,-0.0024
3046.00,-0.0024
3045.00,-0.0024
3044.00,-0.0024
3043.00,-0.0024
3042.00,-0.0024
3041.00,-0.0024
3040.00,-0.0024
3039.00,-0.0024
3038.00,-0.0024
3037.00,-0.0024
3036.00,-0.0024
3035.00,-0.0024
3034.00,-0.0024
3033.00,-0.0024
3032.00,-0.0024
3031.00,-0.0024
3030.00,-0.0024
3029.00,-0.0024
3028.00,-0.0024
3027.00,-0.0024
3026.00,-0.0024
3025.00,-0.0024
3024.00,-0.0024
3023.00,-0.0024
3022.00,-0.0024
3021.00,-0.0024
3020.00,-0.0024
3019.00,-0.0024
3018.00,-0.0024
3017.00,-0.0024
3016.00,-0.0024
3015.00,-0.0024
3014.00,-0.0024
3013.00,-0.0024
3012.00,-0.0024
3011.00,-0.0024
3010.00,-0.0024
3009.00,-0.0024
3008.00,-0.0024
3007.00,-0.0024
3006.00,-0.0024
3005.00,-0.0024
3004.00,-0.0024
3003.00,-0.0024
3002.00,-0.0024
3001.00,-0.0024
3000.00,-0.0024
2999.00,-0.0024
2998.00,-0.0024
2997.00,-0.0024
2996.00,-0.0024
2995.00,-0.0024
2994.00,-0.0024
2993.00,-0.0024
2992.00,-0.0024
2991.00,-0.0024
2990.00,-0.0024
2989.00,-0.0024
2988.00,-0.0024
2987.00,-0.0024
2986.00,-0.0024
2985.00,-0.0024
2984.00,-0.0024
2983.00,-0.0024
2982.00,-0.0024
2981.00,-0.0024
2980.00,-0.0024
2979.00,-0.0024
2978.00,-0.0024
2977.00,-0.0024
2976.00,-0.0024
2975.00,-0.0024
2974.00,-0.0024
2973.00,-0.0024
2972.00,-0.0024
2971.00,-0.0024
2970.00,-0.0024
2969.00,-0.0024
2968.00,-0.0024
2967.00,-0.0024
2966.00,-0.0024
2965.00,-0.0024
2964.00,-0.0024
2963.00,-0.0024
2962.00,-0.0024
2961.00,-0.0024
2960.00,-0.0024
2959.00,-0.0024
2958.00,-0.0024
2957.00,-0.0024
2956.00,-0.0024
2955.00,-0.0024
2954.00,-0.0024
2953.00,-0.0024
2952.00,-0.0024
2951.00,-0.0024
2950.00,-0.0024
2949.00,-0.0024
2948.00,-0.0024
2947.00,-0.0024
2946.00,-0.0024
2945.00,-0.0023
2944.00,-0.0023
2943.00,-0.0023
2942.00,-0.0023
2941.00,-0.0023
2940.00,-0.0023
2939.00,-0.0023
2938.00,-0.0023
2937.00,-0.0023
2936.00,-0.0023
2935.00,-0.0023
2934.00,-0.0023
2933.00,-0.0023
2932.00,-0.0023
2931.00,-0.0024
2930.00,-0.0024
2929.00,-0.0024
2928.00,-0.0024
2927.00,-0.0024
2926.00,-0.0024
2925.00,-0.0025
2924.00,-0.0025
2923.00,-0.0025
2922.00,-0.0025
2921.00,-0.0025
2920.00,-0.0025
2919.00,-0.0025
2918.00,-0.0025
2917.00,-0.0025
2916.00,-0.0025
2915.00,-0.0025
2914.00,-0.0025
2913.00,-0.0025
2912.00,-0.0024
2911.00,-0.0024
2910.00,-0.0024
2909.00,-0.0024
2908.00,-0.0024
2907.00,-0.0024
2906.00,-0.0024
2905.00,-0.0024
2904.00,-0.0024
2903.00,-0.0024
2902.00,-0.0024
2901.00,-0.0024
2900.00,-0.0024
2899.00,-0.0024
2898.00,-0.0024
2897.00,-0.0024
2896.00,-0.0024
2895.00,-0.0024
2894.00,-0.0024
2893.00,-0.0024
2892.00,-0.0024
2891.00,-0.0024
2890.00,-0.0024
2889.00,-0.0024
2888.00,-0.0024
2887.00,-0.0024
2886.00,-0.0024
2885.00,-0.0024
2884.00,-0.0024
2883.00,-0.0024
2882.00,-0.0024
2881.00,-0.0024
2880.00,-0.0023
2879.00,-0.0023
2878.00,-0.0023
2877.00,-0.0023
2876.00,-0.0023
2875.00,-0.0023
2874.00,-0.0023
2873.00,-0.0023
2872.00,-0.0023
2871.00,-0.0023
2870.00,-0.0023
2869.00,-0.0023
2868.00,-0.0023
2867.00,-0.0023
2866.00,-0.0023
2865.00,-0.0024
2864.00,-0.0023
2863.00,-0.0023
2862.00,-0.0024
2861.00,-0.0024
2860.00,-0.0024
2859.00,-0.0024
2858.00,-0.0024
2857.00,-0.0024
2856.00,-0.0024
2855.00,-0.0025
2854.00,-0.0025
2853.00,-0.0025
2852.00,-0.0025
2851.00,-0.0025
2850.00,-0.0025
2849.00,-0.0025
2848.00,-0.0025
2847.00,-0.0025
2846.00,-0.0025
2845.00,-0.0024
2844.00,-0.0024
2843.00,-0.0024
2842.00,-0.0024
2841.00,-0.0024
2840.00,-0.0024
2839.00,-0.0024
2838.00,-0.0023
2837.00,-0.0023
2836.00,-0.0023
2835.00,-0.0023
2834.00,-0.0023
2833.00,-0.0023
2832.00,-0.0023
2831.00,-0.0023
2830.00,-0.0023
2829.00,-0.0023
2828.00,-0.0023
2827.00,-0.0023
2826.00,-0.0023
2825.00,-0.0023
2824.00,-0.0023
2823.00,-0.0023
2822.00,-0.0023
2821.00,-0.0023
2820.00,-0.0023
2819.00,-0.0023
2818.00,-0.0023
2817.00,-0.0023
2816.00,-0.0023
2815.00,-0.0023
2814.00,-0.0023
2813.00,-0.0023
2812.00,-0.0023
2811.00,-0.0023
2810.00,-0.0023
2809.00,-0.0023
2808.00,-0.0023
2807.00,-0.0023
2806.00,-0.0023
2805.00,-0.0023
2804.00,-0.0023
2803.00,-0.0023
2802.00,-0.0023
2801.00,-0.0023
2800.00,-0.0023
2799.00,-0.0023
2798.00,-0.0023
2797.00,-0.0023
2796.00,-0.0023
2795.00,-0.0023
2794.00,-0.0023
2793.00,-0.0023
2792.00,-0.0023
2791.00,-0.0023
2790.00,-0.0023
2789.00,-0.0023
2788.00,-0.0023
2787.00,-0.0023
2786.00,-0.0023
2785.00,-0.0023
2784.00,-0.0023
2783.00,-0.0023
2782.00,-0.0023
2781.00,-0.0023
2780.00,-0.0023
2779.00,-0.0023
2778.00,-0.0023
2777.00,-0.0023
2776.00,-0.0023
2775.00,-0.0023
2774.00,-0.0023
2773.00,-0.0023
2772.00,-0.0023
2771.00,-0.0023
2770.00,-0.0023
2769.00,-0.0023
2768.00,-0.0023
2767.00,-0.0023
2766.00,-0.0023
2765.00,-0.0023
2764.00,-0.0023
2763.00,-0.0023
2762.00,-0.0023
2761.00,-0.0023
2760.00,-0.0023
2759.00,-0.0023
2758.00,-0.0023
2757.00,-0.0023
2756.00,-0.0023
2755.00,-0.0023
2754.00,-0.0023
2753.00,-0.0023
2752.00,-0.0023
2751.00,-0.0023
2750.00,-0.0023
2749.00,-0.0023
2748.00,-0.0023
2747.00,-0.0023
2746.00,-0.0023
2745.00,-0.0023
2744.00,-0.0023
2743.00,-0.0023
2742.00,-0.0023
2741.00,-0.0023
2740.00,-0.0023
2739.00,-0.0023
2738.00,-0.0023
2737.00,-0.0023
2736.00,-0.0023
2735.00,-0.0023
2734.00,-0.0023
2733.00,-0.0023
2732.00,-0.0023
2731.00,-0.0023
2730.00,-0.0023
2729.00,-0.0023
2728.00,-0.0023
2727.00,-0.0023
2726.00,-0.0023
2725.00,-0.0023
2724.00,-0.0023
2723.00,-0.0023
2722.00,-0.0023
2721.00,-0.0023
2720.00,-0.0023
2719.00,-0.0023
2718.00,-0.0023
2717.00,-0.0023
2716.00,-0.0023
2715.00,-0.0023
2714.00,-0.0023
2713.00,-0.0023
2712.00,-0.0023
2711.00,-0.0023
2710.00,-0.0023
2709.00,-0.0023
2708.00,-0.0023
2707.00,-0.0023
2706.00,-0.0023
2705.00,-0.0023
2704.00,-0.0023
2703.00,-0.0023
2702.00,-0.0023
2701.00,-0.0023
2700.00,-0.0023
2699.00,-0.0023
2698.00,-0.0023
2697.00,-0.0023
2696.00,-0.0023
2695.00,-0.0023
2694.00,-0.0023
2693.00,-0.0023
2692.00,-0.0023
2691.00,-0.0023
2690.00,-0.0023
2689.00,-0.0023
2688.00,-0.0023
2687.00,-0.0023
2686.00,-0.0023
2685.00,-0.0023
2684.00,-0.0023
2683.00,-0.0023
2682.00,-0.0023
2681.00,-0.0023
2680.00,-0.0023
2679.00,-0.0023
2678.00,-0.0023
2677.00,-0.0023
2676.00,-0.0023
2675.00,-0.0023
2674.00,-0.0023
2673.00,-0.0023
2672.00,-0.0023
2671.00,-0.0023
2670.00,-0.0023
2669.00,-0.0023
2668.00,-0.0023
2667.00,-0.0023
2666.00,-0.0023
2665.00,-0.0023
2664.00,-0.0023
2663.00,-0.0023
2662.00,-0.0023
2661.00,-0.0023
2660.00,-0.0023
2659.00,-0.0023
2658.00,-0.0023
2657.00,-0.0023
2656.00,-0.0023
2655.00,-0.0023
2654.00,-0.0023
2653.00,-0.0023
2652.00,-0.0023
2651.00,-0.0023
2650.00,-0.0023
2649.00,-0.0023
2648.00,-0.0023
2647.00,-0.0023
2646.00,-0.0023
2645.00,-0.0023
2644.00,-0.0023
2643.00,-0.0023
2642.00,-0.0023
2641.00,-0.0023
2640.00,-0.0023
2639.00,-0.0023
2638.00,-0.0023
2637.00,-0.0023
2636.00,-0.0023
2635.00,-0.0023
2634.00,-0.0023
2633.00,-0.0023
2632.00,-0.0023
2631.00,-0.0023
2630.00,-0.0023
2629.00,-0.0023
2628.00,-0.0023
2627.00,-0.0023
2626.00,-0.0023
2625.00,-0.0023
2624.00,-0.0023
2623.00,-0.0023
2622.00,-0.0023
2621.00,-0.0023
2620.00,-0.0023
2619.00,-0.0023
2618.00,-0.0023
2617.00,-0.0023
2616.00,-0.0023
2615.00,-0.0023
2614.00,-0.0023
2613.00,-0.0023
2612.00,-0.0023
2611.00,-0.0023
2610.00,-0.0023
2609.00,-0.0023
2608.00,-0.0023
2607.00,-0.0023
2606.00,-0.0023
2605.00,-0.0023
2604.00,-0.0023
2603.00,-0.0023
2602.00,-0.0023
2601.00,-0.0023
2600.00,-0.0023
2599.00,-0.0023
2598.00,-0.0023
2597.00,-0.0023
2596.00,-0.0023
2595.00,-0.0023
2594.00,-0.0023
2593.00,-0.0023
2592.00,-0.0023
2591.00,-0.0023
2590.00,-0.0023
2589.00,-0.0023
2588.00,-0.0023
2587.00,-0.0023
2586.00,-0.0023
2585.00,-0.0023
2584.00,-0.0023
2583.00,-0.0023
2582.00,-0.0023
2581.00,-0.0023
2580.00,-0.0023
2579.00,-0.0023
2578.00,-0.0023
2577.00,-0.0023
2576.00,-0.0023
2575.00,-0.0023
2574.00,-0.0023
2573.00,-0.0023
2572.00,-0.0023
2571.00,-0.0023
2570.00,-0.0023
2569.00,-0.0023
2568.00,-0.0023
2567.00,-0.0023
2566.00,-0.0023
2565.00,-0.0023
2564.00,-0.0023
2563.00,-0.0023
2562.00,-0.0023
2561.00,-0.0023
2560.00,-0.0023
2559.00,-0.0023
2558.00,-0.0023
2557.00,-0.0023
2556.00,-0.0023
2555.00,-0.0023
2554.00,-0.0023
2553.00,-0.0023
2552.00,-0.0023
2551.00,-0.0023
2550.00,-0.0023
2549.00,-0.0023
2548.00,-0.0023
2547.00,-0.0023
2546.00,-0.0023
2545.00,-0.0023
2544.00,-0.0023
2543.00,-0.0023
2542.00,-0.0023
2541.00,-0.0023
2540.00,-0.0023
2539.00,-0.0023
2538.00,-0.0023
2537.00,-0.0023
2536.00,-0.0023
2535.00,-0.0023
2534.00,-0.0023
2533.00,-0.0023
2532.00,-0.0023
2531.00,-0.0023
2530.00,-0.0023
2529.00,-0.0023
2528.00,-0.0023
2527.00,-0.0023
2526.00,-0.0023
2525.00,-0.0023
2524.00,-0.0023
2523.00,-0.0023
2522.00,-0.0023
2521.00,-0.0023
2520.00,-0.0023
2519.00,-0.0023
2518.00,-0.0023
2517.00,-0.0023
2516.00,-0.0023
2515.00,-0.0023
2514.00,-0.0023
2513.00,-0.0023
2512.00,-0.0023
2511.00,-0.0023
2510.00,-0.0023
2509.00,-0.0023
2508.00,-0.0023
2507.00,-0.0023
2506.00,-0.0023
2505.00,-0.0023
2504.00,-0.0023
2503.00,-0.0023
2502.00,-0.0023
2501.00,-0.0023
2500.00,-0.0023
2499.00,-0.0023
2498.00,-0.0023
2497.00,-0.0023
2496.00,-0.0023
2495.00,-0.0023
2494.00,-0.0023
2493.00,-0.0023
2492.00,-0.0023
2491.00,-0.0023
2490.00,-0.0023
2489.00,-0.0023
2488.00,-0.0023
2487.00,-0.0023
2486.00,-0.0023
2485.00,-0.0023
2484.00,-0.0023
2483.00,-0.0023
2482.00,-0.0023
2481.00,-0.0023
2480.00,-0.0023
2479.00,-0.0023
2478.00,-0.0023
2477.00,-0.0023
2476.00,-0.0023
2475.00,-0.0023
2474.00,-0.0023
2473.00,-0.0023
2472.00,-0.0023
2471.00,-0.0023
2470.00,-0.0023
2469.00,-0.0023
2468.00,-0.0023
2467.00,-0.0023
2466.00,-0.0023
2465.00,-0.0023
2464.00,-0.0023
2463.00,-0.0023
2462.00,-0.0023
2461.00,-0.0023
2460.00,-0.0023
2459.00,-0.0023
2458.00,-0.0023
2457.00,-0.0023
2456.00,-0.0023
2455.00,-0.0023
2454.00,-0.0023
2453.00,-0.0023
2452.00,-0.0023
2451.00,-0.0023
2450.00,-0.0023
2449.00,-0.0023
2448.00,-0.0023
2447.00,-0.0023
2446.00,-0.0023
2445.00,-0.0023
2444.00,-0.0023
2443.00,-0.0023
2442.00,-0.0023
2441.00,-0.0023
2440.00,-0.0023
2439.00,-0.0023
2438.00,-0.0023
2437.00,-0.0023
2436.00,-0.0023
2435.00,-0.0023
2434.00,-0.0023
2433.00,-0.0023
2432.00,-0.0023
2431.00,-0.0023
2430.00,-0.0023
2429.00,-0.0023
2428.00,-0.0023
2427.00,-0.0023
2426.00,-0.0023
2425.00,-0.0023
2424.00,-0.0023
2423.00,-0.0023
2422.00,-0.0023
2421.00,-0.0023
2420.00,-0.0023
2419.00,-0.0023
2418.00,-0.0023
2417.00,-0.0023
2416.00,-0.0023
2415.00,-0.0023
2414.00,-0.0023
2413.00,-0.0023
2412.00,-0.0023
2411.00,-0.0023
2410.00,-0.0023
2409.00,-0.0023
2408.00,-0.0023
2407.00,-0.0023
2406.00,-0.0023
2405.00,-0.0023
2404.00,-0.0023
2403.00,-0.0023
2402.00,-0.0022
2401.00,-0.0023
2400.00,-0.0023
2399.00,-0.0023
2398.00,-0.0023
2397.00,-0.0023
2396.00,-0.0023
2395.00,-0.0023
2394.00,-0.0023
2393.00,-0.0023
2392.00,-0.0023
2391.00,-0.0022
2390.00,-0.0022
2389.00,-0.0022
2388.00,-0.0022
2387.00,-0.0022
2386.00,-0.0022
2385.00,-0.0022
2384.00,-0.0022
2383.00,-0.0022
2382.00,-0.0022
2381.00,-0.0022
2380.00,-0.0022
2379.00,-0.0022
2378.00,-0.0023
2377.00,-0.0023
2376.00,-0.0023
2375.00,-0.0023
2374.00,-0.0022
2373.00,-0.0022
2372.00,-0.0021
2371.00,-0.0021
2370.00,-0.0021
2369.00,-0.0022
2368.00,-0.0022
2367.00,-0.0022
2366.00,-0.0021
2365.00,-0.0021
2364.00,-0.0021
2363.00,-0.0021
2362.00,-0.0021
2361.00,-0.0021
2360.00,-0.0021
2359.00,-0.0021
2358.00,-0.0021
2357.00,-0.0020
2356.00,-0.0020
2355.00,-0.0020
2354.00,-0.0020
2353.00,-0.0021
2352.00,-0.0022
2351.00,-0.0022
2350.00,-0.0021
2349.00,-0.0020
2348.00,-0.0019
2347.00,-0.0018
2346.00,-0.0019
2345.00,-0.0020
2344.00,-0.0020
2343.00,-0.0020
2342.00,-0.0019
2341.00,-0.0019
2340.00,-0.0020
2339.00,-0.0020
2338.00,-0.0020
2337.00,-0.0020
2336.00,-0.0020
2335.00,-0.0020
2334.00,-0.0019
2333.00,-0.0019
2332.00,-0.0020
2331.00,-0.0020
2330.00,-0.0020
2329.00,-0.0020
2328.00,-0.0020
2327.00,-0.0019
2326.00,-0.0019
2325.00,-0.0019
2324.00,-0.0019
2323.00,-0.0019
2322.00,-0.0020
2321.00,-0.0020
2320.00,-0.0020
2319.00,-0.0020
2318.00,-0.0020
2317.00,-0.0019
2316.00,-0.0020
2315.00,-0.0020
2314.00,-0.0020
2313.00,-0.0020
2312.00,-0.0020
2311.00,-0.0020
2310.00,-0.0020
2309.00,-0.0020
2308.00,-0.0020
2307.00,-0.0020
2306.00,-0.0020
2305.00,-0.0020
2304.00,-0.0021
2303.00,-0.0021
2302.00,-0.0021
2301.00,-0.0021
2300.00,-0.0021
2299.00,-0.0021
2298.00,-0.0021
2297.00,-0.0021
2296.00,-0.0022
2295.00,-0.0022
2294.00,-0.0022
2293.00,-0.0022
2292.00,-0.0022
2291.00,-0.0022
2290.00,-0.0022
2289.00,-0.0022
2288.00,-0.0022
2287.00,-0.0022
2286.00,-0.0022
2285.00,-0.0022
2284.00,-0.0022
2283.00,-0.0022
2282.00,-0.0022
2281.00,-0.0022
2280.00,-0.0022
2279.00,-0.0022
2278.00,-0.0022
2277.00,-0.0022
2276.00,-0.0023
2275.00,-0.0023
2274.00,-0.0023
2273.00,-0.0023
2272.00,-0.0023
2271.00,-0.0023
2270.00,-0.0023
2269.00,-0.0023
2268.00,-0.0023
2267.00,-0.0022
2266.00,-0.0022
2265.00,-0.0023
2264.00,-0.0023
2263.00,-0.0023
2262.00,-0.0023
2261.00,-0.0023
2260.00,-0.0023
2259.00,-0.0022
2258.00,-0.0022
2257.00,-0.0022
2256.00,-0.0022
2255.00,-0.0022
2254.00,-0.0022
2253.00,-0.0022
2252.00,-0.0022
2251.00,-0.0022
2250.00,-0.0022
2249.00,-0.0022
2248.00,-0.0022
2247.00,-0.0022
2246.00,-0.0022
2245.00,-0.0022
2244.00,-0.0022
2243.00,-0.0022
2242.00,-0.0022
2241.00,-0.0022
2240.00,-0.0022
2239.00,-0.0022
2238.00,-0.0022
2237.00,-0.0022
2236.00,-0.0022
2235.00,-0.0022
2234.00,-0.0022
2233.00,-0.0022
2232.00,-0.0022
2231.00,-0.0022
2230.00,-0.0022
2229.00,-0.0022
2228.00,-0.0022
2227.00,-0.0022
2226.00,-0.0022
2225.00,-0.0022
2224.00,-0.0022
2223.00,-0.0022
2222.00,-0.0022
2221.00,-0.0022
2220.00,-0.0022
2219.00,-0.0022
2218.00,-0.0022
2217.00,-0.0022
2216.00,-0.0022
2215.00,-0.0022
2214.00,-0.0022
2213.00,-0.0022
2212.00,-0.0022
2211.00,-0.0022
2210.00,-0.0022
2209.00,-0.0022
2208.00,-0.0022
2207.00,-0.0022
2206.00,-0.0022
2205.00,-0.0022
2204.00,-0.0022
2203.00,-0.0022
2202.00,-0.0022
2201.00,-0.0022
2200.00,-0.0023
2199.00,-0.0023
2198.00,-0.0023
2197.00,-0.0022
2196.00,-0.0022
2195.00,-0.0022
2194.00,-0.0022
2193.00,-0.0022
2192.00,-0.0022
2191.00,-0.0022
2190.00,-0.0022
2189.00,-0.0022
2188.00,-0.0022
2187.00,-0.0022
2186.00,-0.0022
2185.00,-0.0022
2184.00,-0.0022
2183.00,-0.0022
2182.00,-0.0022
2181.00,-0.0022
2180.00,-0.0022
2179.00,-0.0022
2178.00,-0.0022
2177.00,-0.0022
2176.00,-0.0022
2175.00,-0.0022
2174.00,-0.0022
2173.00,-0.0022
2172.00,-0.0022
2171.00,-0.0023
2170.00,-0.0022
2169.00,-0.0022
2168.00,-0.0022
2167.00,-0.0022
2166.00,-0.0022
2165.00,-0.0022
2164.00,-0.0022
2163.00,-0.0022
2162.00,-0.0022
2161.00,-0.0022
2160.00,-0.0022
2159.00,-0.0022
2158.00,-0.0022
2157.00,-0.0022
2156.00,-0.0022
2155.00,-0.0022
2154.00,-0.0022
2153.00,-0.0022
2152.00,-0.0022
2151.00,-0.0022
2150.00,-0.0022
2149.00,-0.0022
2148.00,-0.0022
2147.00,-0.0022
2146.00,-0.0022
2145.00,-0.0022
2144.00,-0.0022
2143.00,-0.0022
2142.00,-0.0022
2141.00,-0.0022
2140.00,-0.0022
2139.00,-0.0022
2138.00,-0.0022
2137.00,-0.0022
2136.00,-0.0022
2135.00,-0.0022
2134.00,-0.0022
2133.00,-0.0022
2132.00,-0.0022
2131.00,-0.0022
2130.00,-0.0022
2129.00,-0.0022
2128.00,-0.0022
2127.00,-0.0022
2126.00,-0.0022
2125.00,-0.0022
2124.00,-0.0022
2123.00,-0.0022
2122.00,-0.0022
2121.00,-0.0022
2120.00,-0.0022
2119.00,-0.0022
2118.00,-0.0022
2117.00,-0.0022
2116.00,-0.0022
2115.00,-0.0022
2114.00,-0.0022
2113.00,-0.0022
2112.00,-0.0022
2111.00,-0.0022
2110.00,-0.0022
2109.00,-0.0022
2108.00,-0.0022
2107.00,-0.0022
2106.00,-0.0022
2105.00,-0.0022
2104.00,-0.0022
2103.00,-0.0023
2102.00,-0.0022
2101.00,-0.0022
2100.00,-0.0022
2099.00,-0.0022
2098.00,-0.0022
2097.00,-0.0022
2096.00,-0.0022
2095.00,-0.0022
2094.00,-0.0022
2093.00,-0.0022
2092.00,-0.0022
2091.00,-0.0022
2090.00,-0.0022
2089.00,-0.0022
2088.00,-0.0022
2087.00,-0.0022
2086.00,-0.0022
2085.00,-0.0022
2084.00,-0.0022
2083.00,-0.0022
2082.00,-0.0022
2081.00,-0.0022
2080.00,-0.0022
2079.00,-0.0022
2078.00,-0.0022
2077.00,-0.0022
2076.00,-0.0022
2075.00,-0.0022
2074.00,-0.0022
2073.00,-0.0022
2072.00,-0.0022
2071.00,-0.0022
2070.00,-0.0022
2069.00,-0.0022
2068.00,-0.0022
2067.00,-0.0022
2066.00,-0.0022
2065.00,-0.0022
2064.00,-0.0022
2063.00,-0.0022
2062.00,-0.0022
2061.00,-0.0022
2060.00,-0.0022
2059.00,-0.0022
2058.00,-0.0022
2057.00,-0.0022
2056.00,-0.0022
2055.00,-0.0022
2054.00,-0.0022
2053.00,-0.0022
2052.00,-0.0022
2051.00,-0.0022
2050.00,-0.0022
2049.00,-0.0022
2048.00,-0.0022
2047.00,-0.0022
2046.00,-0.0022
2045.00,-0.0022
2044.00,-0.0022
2043.00,-0.0022
2042.00,-0.0022
2041.00,-0.0022
2040.00,-0.0022
2039.00,-0.0022
2038.00,-0.0022
2037.00,-0.0022
2036.00,-0.0022
2035.00,-0.0022
2034.00,-0.0022
2033.00,-0.0022
2032.00,-0.0022
2031.00,-0.0022
2030.00,-0.0022
2029.00,-0.0022
2028.00,-0.0022
2027.00,-0.0022
2026.00,-0.0022
2025.00,-0.0022
2024.00,-0.0022
2023.00,-0.0022
2022.00,-0.0022
2021.00,-0.0022
2020.00,-0.0022
2019.00,-0.0022
2018.00,-0.0022
2017.00,-0.0022
2016.00,-0.0022
2015.00,-0.0022
2014.00,-0.0022
2013.00,-0.0022
2012.00,-0.0022
2011.00,-0.0022
2010.00,-0.0022
2009.00,-0.0022
2008.00,-0.0022
2007.00,-0.0022
2006.00,-0.0022
2005.00,-0.0022
2004.00,-0.0022
2003.00,-0.0022
2002.00,-0.0022
2001.00,-0.0022
2000.00,-0.0022
1999.00,-0.0022
1998.00,-0.0022
1997.00,-0.0022
1996.00,-0.0022
1995.00,-0.0022
1994.00,-0.0022
1993.00,-0.0022
1992.00,-0.0022
1991.00,-0.0022
1990.00,-0.0022
1989.00,-0.0022
1988.00,-0.0022
1987.00,-0.0022
1986.00,-0.0022
1985.00,-0.0022
1984.00,-0.0022
1983.00,-0.0022
1982.00,-0.0022
1981.00,-0.0022
1980.00,-0.0022
1979.00,-0.0022
1978.00,-0.0022
1977.00,-0.0022
1976.00,-0.0022
1975.00,-0.0022
1974.00,-0.0022
1973.00,-0.0022
1972.00,-0.0022
1971.00,-0.0022
1970.00,-0.0022
1969.00,-0.0022
1968.00,-0.0022
1967.00,-0.0022
1966.00,-0.0022
1965.00,-0.0022
1964.00,-0.0022
1963.00,-0.0022
1962.00,-0.0022
1961.00,-0.0022
1960.00,-0.0022
1959.00,-0.0022
1958.00,-0.0022
1957.00,-0.0022
1956.00,-0.0022
1955.00,-0.0022
1954.00,-0.0022
1953.00,-0.0022
1952.00,-0.0022
1951.00,-0.0022
1950.00,-0.0022
1949.00,-0.0022
1948.00,-0.0022
1947.00,-0.0022
1946.00,-0.0022
1945.00,-0.0022
1944.00,-0.0022
1943.00,-0.0022
1942.00,-0.0022
1941.00,-0.0022
1940.00,-0.0022
1939.00,-0.0022
1938.00,-0.0022
1937.00,-0.0022
1936.00,-0.0022
1935.00,-0.0022
1934.00,-0.0022
1933.00,-0.0022
1932.00,-0.0022
1931.00,-0.0022
1930.00,-0.0022
1929.00,-0.0022
1928.00,-0.0022
1927.00,-0.0022
1926.00,-0.0022
1925.00,-0.0022
1924.00,-0.0023
1923.00,-0.0022
1922.00,-0.0022
1921.00,-0.0022
1920.00,-0.0022
1919.00,-0.0022
1918.00,-0.0022
1917.00,-0.0022
1916.00,-0.0022
1915.00,-0.0022
1914.00,-0.0022
1913.00,-0.0022
1912.00,-0.0022
1911.00,-0.0022
1910.00,-0.0022
1909.00,-0.0022
1908.00,-0.0022
1907.00,-0.0022
1906.00,-0.0022
1905.00,-0.0022
1904.00,-0.0022
1903.00,-0.0022
1902.00,-0.0022
1901.00,-0.0022
1900.00,-0.0022
1899.00,-0.0022
1898.00,-0.0022
1897.00,-0.0022
1896.00,-0.0022
1895.00,-0.0022
1894.00,-0.0022
1893.00,-0.0022
1892.00,-0.0022
1891.00,-0.0022
1890.00,-0.0022
1889.00,-0.0022
1888.00,-0.0022
1887.00,-0.0022
1886.00,-0.0022
1885.00,-0.0022
1884.00,-0.0022
1883.00,-0.0022
1882.00,-0.0022
1881.00,-0.0022
1880.00,-0.0022
1879.00,-0.0022
1878.00,-0.0022
1877.00,-0.0022
1876.00,-0.0022
1875.00,-0.0022
1874.00,-0.0022
1873.00,-0.0022
1872.00,-0.0022
1871.00,-0.0022
1870.00,-0.0022
1869.00,-0.0022
1868.00,-0.0022
1867.00,-0.0022
1866.00,-0.0022
1865.00,-0.0022
1864.00,-0.0022
1863.00,-0.0022
1862.00,-0.0022
1861.00,-0.0022
1860.00,-0.0022
1859.00,-0.0022
1858.00,-0.0022
1857.00,-0.0022
1856.00,-0.0022
1855.00,-0.0022
1854.00,-0.0022
1853.00,-0.0022
1852.00,-0.0022
1851.00,-0.0022
1850.00,-0.0022
1849.00,-0.0022
1848.00,-0.0022
1847.00,-0.0022
1846.00,-0.0022
1845.00,-0.0022
1844.00,-0.0022
1843.00,-0.0022
1842.00,-0.0022
1841.00,-0.0021
1840.00,-0.0022
1839.00,-0.0022
1838.00,-0.0022
1837.00,-0.0022
1836.00,-0.0022
1835.00,-0.0022
1834.00,-0.0022
1833.00,-0.0022
1832.00,-0.0022
1831.00,-0.0022
1830.00,-0.0022
1829.00,-0.0022
1828.00,-0.0022
1827.00,-0.0022
1826.00,-0.0021
1825.00,-0.0022
1824.00,-0.0022
1823.00,-0.0022
1822.00,-0.0022
1821.00,-0.0022
1820.00,-0.0022
1819.00,-0.0022
1818.00,-0.0022
1817.00,-0.0022
1816.00,-0.0022
1815.00,-0.0022
1814.00,-0.0022
1813.00,-0.0022
1812.00,-0.0022
1811.00,-0.0022
1810.00,-0.0022
1809.00,-0.0022
1808.00,-0.0022
1807.00,-0.0022
1806.00,-0.0022
1805.00,-0.0022
1804.00,-0.0022
1803.00,-0.0022
1802.00,-0.0022
1801.00,-0.0022
1800.00,-0.0021
1799.00,-0.0021
1798.00,-0.0021
1797.00,-0.0022
1796.00,-0.0022
1795.00,-0.0022
1794.00,-0.0021
1793.00,-0.0021
1792.00,-0.0021
1791.00,-0.0022
1790.00,-0.0021
1789.00,-0.0021
1788.00,-0.0021
1787.00,-0.0021
1786.00,-0.0021
1785.00,-0.0021
1784.00,-0.0021
1783.00,-0.0021
1782.00,-0.0021
1781.00,-0.0022
1780.00,-0.0022
1779.00,-0.0022
1778.00,-0.0021
1777.00,-0.0021
1776.00,-0.0021
1775.00,-0.0021
1774.00,-0.0021
1773.00,-0.0021
1772.00,-0.0021
1771.00,-0.0021
1770.00,-0.0021
1769.00,-0.0020
1768.00,-0.0020
1767.00,-0.0021
1766.00,-0.0021
1765.00,-0.0021
1764.00,-0.0021
1763.00,-0.0022
1762.00,-0.0022
1761.00,-0.0022
1760.00,-0.0022
1759.00,-0.0021
1758.00,-0.0021
1757.00,-0.0021
1756.00,-0.0021
1755.00,-0.0021
1754.00,-0.0020
1753.00,-0.0019
1752.00,-0.0018
1751.00,-0.0018
1750.00,-0.0019
1749.00,-0.0020
1748.00,-0.0020
1747.00,-0.0021
1746.00,-0.0021
1745.00,-0.0021
1744.00,-0.0021
1743.00,-0.0022
1742.00,-0.0022
1741.00,-0.0022
1740.00,-0.0022
1739.00,-0.0022
1738.00,-0.0022
1737.00,-0.0021
1736.00,-0.0020
1735.00,-0.0020
1734.00,-0.0019
1733.00,-0.0019
1732.00,-0.0020
1731.00,-0.0020
1730.00,-0.0021
1729.00,-0.0021
1728.00,-0.0021
1727.00,-0.0022
1726.00,-0.0022
1725.00,-0.0022
1724.00,-0.0022
1723.00,-0.0022
1722.00,-0.0021
1721.00,-0.0021
1720.00,-0.0021
1719.00,-0.0021
1718.00,-0.0020
1717.00,-0.0020
1716.00,-0.0020
1715.00,-0.0021
1714.00,-0.0021
1713.00,-0.0021
1712.00,-0.0021
1711.00,-0.0021
1710.00,-0.0021
1709.00,-0.0021
1708.00,-0.0022
1707.00,-0.0022
1706.00,-0.0022
1705.00,-0.0022
1704.00,-0.0022
1703.00,-0.0022
1702.00,-0.0021
1701.00,-0.0021
1700.00,-0.0021
1699.00,-0.0021
1698.00,-0.0020
1697.00,-0.0019
1696.00,-0.0020
1695.00,-0.0021
1694.00,-0.0021
1693.00,-0.0021
1692.00,-0.0021
1691.00,-0.0021
1690.00,-0.0021
1689.00,-0.0021
1688.00,-0.0021
1687.00,-0.0021
1686.00,-0.0020
1685.00,-0.0020
1684.00,-0.0020
1683.00,-0.0021
1682.00,-0.0021
1681.00,-0.0021
1680.00,-0.0021
1679.00,-0.0021
1678.00,-0.0021
1677.00,-0.0021
1676.00,-0.0021
1675.00,-0.0021
1674.00,-0.0021
1673.00,-0.0021
1672.00,-0.0021
1671.00,-0.0021
1670.00,-0.0021
1669.00,-0.0022
1668.00,-0.0022
1667.00,-0.0022
1666.00,-0.0022
1665.00,-0.0022
1664.00,-0.0022
1663.00,-0.0022
1662.00,-0.0022
1661.00,-0.0022
1660.00,-0.0021
1659.00,-0.0021
1658.00,-0.0021
1657.00,-0.0022
1656.00,-0.0022
1655.00,-0.0022
1654.00,-0.0022
1653.00,-0.0022
1652.00,-0.0022
1651.00,-0.0022
1650.00,-0.0022
1649.00,-0.0021
1648.00,-0.0021
1647.00,-0.0021
1646.00,-0.0021
1645.00,-0.0021
1644.00,-0.0021
1643.00,-0.0021
1642.00,-0.0021
1641.00,-0.0021
1640.00,-0.0022
1639.00,-0.0022
1638.00,-0.0022
1637.00,-0.0022
1636.00,-0.0022
1635.00,-0.0022
1634.00,-0.0022
1633.00,-0.0022
1632.00,-0.0022
1631.00,-0.0022
1630.00,-0.0022
1629.00,-0.0022
1628.00,-0.0022
1627.00,-0.0022
1626.00,-0.0022
1625.00,-0.0022
1624.00,-0.0022
1623.00,-0.0022
1622.00,-0.0022
1621.00,-0.0023
1620.00,-0.0023
1619.00,-0.0022
1618.00,-0.0022
1617.00,-0.0023
1616.00,-0.0023
1615.00,-0.0022
1614.00,-0.0022
1613.00,-0.0022
1612.00,-0.0022
1611.00,-0.0022
1610.00,-0.0022
1609.00,-0.0023
1608.00,-0.0022
1607.00,-0.0022
1606.00,-0.0022
1605.00,-0.0022
1604.00,-0.0022
1603.00,-0.0022
1602.00,-0.0022
1601.00,-0.0022
1600.00,-0.0022
1599.00,-0.0022
1598.00,-0.0022
1597.00,-0.0022
1596.00,-0.0022
1595.00,-0.0022
1594.00,-0.0022
1593.00,-0.0022
1592.00,-0.0022
1591.00,-0.0022
1590.00,-0.0022
1589.00,-0.0022
1588.00,-0.0022
1587.00,-0.0022
1586.00,-0.0022
1585.00,-0.0022
1584.00,-0.0022
1583.00,-0.0022
1582.00,-0.0022
1581.00,-0.0022
1580.00,-0.0023
1579.00,-0.0023
1578.00,-0.0023
1577.00,-0.0023
1576.00,-0.0022
1575.00,-0.0022
1574.00,-0.0022
1573.00,-0.0022
1572.00,-0.0022
1571.00,-0.0022
1570.00,-0.0022
1569.00,-0.0022
1568.00,-0.0022
1567.00,-0.0021
1566.00,-0.0021
1565.00,-0.0021
1564.00,-0.0022
1563.00,-0.0022
1562.00,-0.0022
1561.00,-0.0022
1560.00,-0.0022
1559.00,-0.0021
1558.00,-0.0020
1557.00,-0.0020
1556.00,-0.0020
1555.00,-0.0020
1554.00,-0.0020
1553.00,-0.0020
1552.00,-0.0020
1551.00,-0.0020
1550.00,-0.0020
1549.00,-0.0020
1548.00,-0.0020
1547.00,-0.0020
1546.00,-0.0020
1545.00,-0.0020
1544.00,-0.0021
1543.00,-0.0021
1542.00,-0.0021
1541.00,-0.0020
1540.00,-0.0021
1539.00,-0.0021
1538.00,-0.0021
1537.00,-0.0021
1536.00,-0.0020
1535.00,-0.0020
1534.00,-0.0020
1533.00,-0.0021
1532.00,-0.0021
1531.00,-0.0021
1530.00,-0.0020
1529.00,-0.0021
1528.00,-0.0021
1527.00,-0.0021
1526.00,-0.0020
1525.00,-0.0020
1524.00,-0.0020
1523.00,-0.0020
1522.00,-0.0020
1521.00,-0.0020
1520.00,-0.0020
1519.00,-0.0020
1518.00,-0.0020
1517.00,-0.0020
1516.00,-0.0020
1515.00,-0.0020
1514.00,-0.0020
1513.00,-0.0019
1512.00,-0.0020
1511.00,-0.0020
1510.00,-0.0020
1509.00,-0.0020
1508.00,-0.0020
1507.00,-0.0020
1506.00,-0.0020
1505.00,-0.0020
1504.00,-0.0020
1503.00,-0.0021
1502.00,-0.0021
1501.00,-0.0021
1500.00,-0.0021
1499.00,-0.0022
1498.00,-0.0022
1497.00,-0.0022
1496.00,-0.0022
1495.00,-0.0022
1494.00,-0.0021
1493.00,-0.0021
1492.00,-0.0021
1491.00,-0.0021
1490.00,-0.0021
1489.00,-0.0021
1488.00,-0.0021
1487.00,-0.0021
1486.00,-0.0021
1485.00,-0.0021
1484.00,-0.0021
1483.00,-0.0022
1482.00,-0.0022
1481.00,-0.0022
1480.00,-0.0022
1479.00,-0.0021
1478.00,-0.0021
1477.00,-0.0021
1476.00,-0.0021
1475.00,-0.0021
1474.00,-0.0020
1473.00,-0.0020
1472.00,-0.0020
1471.00,-0.0021
1470.00,-0.0021
1469.00,-0.0022
1468.00,-0.0022
1467.00,-0.0022
1466.00,-0.0022
1465.00,-0.0022
1464.00,-0.0022
1463.00,-0.0021
1462.00,-0.0021
1461.00,-0.0021
1460.00,-0.0022
1459.00,-0.0022
1458.00,-0.0022
1457.00,-0.0021
1456.00,-0.0021
1455.00,-0.0021
1454.00,-0.0021
1453.00,-0.0021
1452.00,-0.0021
1451.00,-0.0022
1450.00,-0.0022
1449.00,-0.0022
1448.00,-0.0022
1447.00,-0.0022
1446.00,-0.0022
1445.00,-0.0022
1444.00,-0.0022
1443.00,-0.0022
1442.00,-0.0022
1441.00,-0.0022
1440.00,-0.0022
1439.00,-0.0022
1438.00,-0.0022
1437.00,-0.0022
1436.00,-0.0021
1435.00,-0.0021
1434.00,-0.0021
1433.00,-0.0021
1432.00,-0.0021
1431.00,-0.0022
1430.00,-0.0022
1429.00,-0.0022
1428.00,-0.0022
1427.00,-0.0022
1426.00,-0.0022
1425.00,-0.0021
1424.00,-0.0021
1423.00,-0.0021
1422.00,-0.0022
1421.00,-0.0021
1420.00,-0.0021
1419.00,-0.0021
1418.00,-0.0021
1417.00,-0.0021
1416.00,-0.0021
1415.00,-0.0021
1414.00,-0.0022
1413.00,-0.0022
1412.00,-0.0022
1411.00,-0.0022
1410.00,-0.0023
1409.00,-0.0022
1408.00,-0.0022
1407.00,-0.0022
1406.00,-0.0022
1405.00,-0.0022
1404.00,-0.0022
1403.00,-0.0022
1402.00,-0.0022
1401.00,-0.0022
1400.00,-0.0022
1399.00,-0.0022
1398.00,-0.0022
1397.00,-0.0021
1396.00,-0.0021
1395.00,-0.0022
1394.00,-0.0022
1393.00,-0.0022
1392.00,-0.0022
1391.00,-0.0022
1390.00,-0.0022
1389.00,-0.0022
1388.00,-0.0023
1387.00,-0.0023
1386.00,-0.0023
1385.00,-0.0023
1384.00,-0.0023
1383.00,-0.0023
1382.00,-0.0023
1381.00,-0.0022
1380.00,-0.0022
1379.00,-0.0022
1378.00,-0.0022
1377.00,-0.0022
1376.00,-0.0022
1375.00,-0.0022
1374.00,-0.0022
1373.00,-0.0022
1372.00,-0.0022
1371.00,-0.0022
1370.00,-0.0022
1369.00,-0.0022
1368.00,-0.0022
1367.00,-0.0022
1366.00,-0.0022
1365.00,-0.0022
1364.00,-0.0022
1363.00,-0.0023
1362.00,-0.0023
1361.00,-0.0023
1360.00,-0.0022
1359.00,-0.0022
1358.00,-0.0022
1357.00,-0.0022
1356.00,-0.0022
1355.00,-0.0022
1354.00,-0.0022
1353.00,-0.0023
1352.00,-0.0023
1351.00,-0.0023
1350.00,-0.0022
1349.00,-0.0022
1348.00,-0.0022
1347.00,-0.0022
1346.00,-0.0022
1345.00,-0.0023
1344.00,-0.0022
1343.00,-0.0022
1342.00,-0.0023
1341.00,-0.0023
1340.00,-0.0023
1339.00,-0.0023
1338.00,-0.0023
1337.00,-0.0023
1336.00,-0.0022
1335.00,-0.0022
1334.00,-0.0022
1333.00,-0.0022
1332.00,-0.0023
1331.00,-0.0023
1330.00,-0.0023
1329.00,-0.0023
1328.00,-0.0022
1327.00,-0.0022
1326.00,-0.0022
1325.00,-0.0022
1324.00,-0.0022
1323.00,-0.0023
1322.00,-0.0023
1321.00,-0.0023
1320.00,-0.0023
1319.00,-0.0022
1318.00,-0.0022
1317.00,-0.0022
1316.00,-0.0022
1315.00,-0.0022
1314.00,-0.0023
1313.00,-0.0023
1312.00,-0.0023
1311.00,-0.0023
1310.00,-0.0023
1309.00,-0.0023
1308.00,-0.0023
1307.00,-0.0023
1306.00,-0.0023
1305.00,-0.0023
1304.00,-0.0023
1303.00,-0.0023
1302.00,-0.0023
1301.00,-0.0023
1300.00,-0.0023
1299.00,-0.0023
1298.00,-0.0023
1297.00,-0.0023
1296.00,-0.0023
1295.00,-0.0023
1294.00,-0.0023
1293.00,-0.0023
1292.00,-0.0023
1291.00,-0.0023
1290.00,-0.0023
1289.00,-0.0023
1288.00,-0.0023
1287.00,-0.0023
1286.00,-0.0023
1285.00,-0.0023
1284.00,-0.0023
1283.00,-0.0022
1282.00,-0.0023
1281.00,-0.0023
1280.00,-0.0023
1279.00,-0.0023
1278.00,-0.0023
1277.00,-0.0023
1276.00,-0.0023
1275.00,-0.0023
1274.00,-0.0023
1273.00,-0.0023
1272.00,-0.0023
1271.00,-0.0023
1270.00,-0.0023
1269.00,-0.0023
1268.00,-0.0023
1267.00,-0.0023
1266.00,-0.0023
1265.00,-0.0023
1264.00,-0.0023
1263.00,-0.0023
1262.00,-0.0023
1261.00,-0.0024
1260.00,-0.0024
1259.00,-0.0024
1258.00,-0.0024
1257.00,-0.0024
1256.00,-0.0024
1255.00,-0.0024
1254.00,-0.0024
1253.00,-0.0024
1252.00,-0.0024
1251.00,-0.0024
1250.00,-0.0024
1249.00,-0.0024
1248.00,-0.0025
1247.00,-0.0024
1246.00,-0.0024
1245.00,-0.0024
1244.00,-0.0024
1243.00,-0.0024
1242.00,-0.0024
1241.00,-0.0024
1240.00,-0.0023
1239.00,-0.0023
1238.00,-0.0023
1237.00,-0.0023
1236.00,-0.0023
1235.00,-0.0023
1234.00,-0.0023
1233.00,-0.0023
1232.00,-0.0023
1231.00,-0.0023
1230.00,-0.0023
1229.00,-0.0023
1228.00,-0.0023
1227.00,-0.0023
1226.00,-0.0023
1225.00,-0.0023
1224.00,-0.0023
1223.00,-0.0023
1222.00,-0.0023
1221.00,-0.0023
1220.00,-0.0023
1219.00,-0.0023
1218.00,-0.0023
1217.00,-0.0023
1216.00,-0.0023
1215.00,-0.0023
1214.00,-0.0023
1213.00,-0.0023
1212.00,-0.0023
1211.00,-0.0023
1210.00,-0.0023
1209.00,-0.0023
1208.00,-0.0023
1207.00,-0.0023
1206.00,-0.0023
1205.00,-0.0023
1204.00,-0.0023
1203.00,-0.0023
1202.00,-0.0023
1201.00,-0.0023
1200.00,-0.0023
1199.00,-0.0023
1198.00,-0.0023
1197.00,-0.0023
1196.00,-0.0023
1195.00,-0.0023
1194.00,-0.0023
1193.00,-0.0023
1192.00,-0.0023
1191.00,-0.0023
1190.00,-0.0023
1189.00,-0.0023
1188.00,-0.0023
1187.00,-0.0023
1186.00,-0.0023
1185.00,-0.0024
1184.00,-0.0024
1183.00,-0.0024
1182.00,-0.0024
1181.00,-0.0024
1180.00,-0.0024
1179.00,-0.0024
1178.00,-0.0024
1177.00,-0.0024
1176.00,-0.0024
1175.00,-0.0024
1174.00,-0.0024
1173.00,-0.0024
1172.00,-0.0024
1171.00,-0.0024
1170.00,-0.0024
1169.00,-0.0024
1168.00,-0.0024
1167.00,-0.0024
1166.00,-0.0024
1165.00,-0.0024
1164.00,-0.0024
1163.00,-0.0024
1162.00,-0.0024
1161.00,-0.0024
1160.00,-0.0024
1159.00,-0.0024
1158.00,-0.0024
1157.00,-0.0024
1156.00,-0.0024
1155.00,-0.0024
1154.00,-0.0024
1153.00,-0.0024
1152.00,-0.0024
1151.00,-0.0024
1150.00,-0.0024
1149.00,-0.0024
1148.00,-0.0024
1147.00,-0.0024
1146.00,-0.0024
1145.00,-0.0024
1144.00,-0.0024
1143.00,-0.0024
1142.00,-0.0024
1141.00,-0.0024
1140.00,-0.0024
1139.00,-0.0024
1138.00,-0.0024
1137.00,-0.0024
1136.00,-0.0024
1135.00,-0.0024
1134.00,-0.0024
1133.00,-0.0024
1132.00,-0.0024
1131.00,-0.0024
1130.00,-0.0024
1129.00,-0.0024
1128.00,-0.0024
1127.00,-0.0024
1126.00,-0.0024
1125.00,-0.0024
1124.00,-0.0024
1123.00,-0.0024
1122.00,-0.0024
1121.00,-0.0025
1120.00,-0.0025
1119.00,-0.0025
1118.00,-0.0025
1117.00,-0.0025
1116.00,-0.0025
1115.00,-0.0024
1114.00,-0.0024
1113.00,-0.0025
1112.00,-0.0025
1111.00,-0.0024
1110.00,-0.0024
1109.00,-0.0024
1108.00,-0.0024
1107.00,-0.0024
1106.00,-0.0024
1105.00,-0.0024
1104.00,-0.0024
1103.00,-0.0024
1102.00,-0.0024
1101.00,-0.0024
1100.00,-0.0024
1099.00,-0.0024
1098.00,-0.0024
1097.00,-0.0024
1096.00,-0.0024
1095.00,-0.0024
1094.00,-0.0024
1093.00,-0.0024
1092.00,-0.0024
1091.00,-0.0024
1090.00,-0.0024
1089.00,-0.0024
1088.00,-0.0024
1087.00,-0.0024
1086.00,-0.0024
1085.00,-0.0024
1084.00,-0.0024
1083.00,-0.0024
1082.00,-0.0024
1081.00,-0.0025
1080.00,-0.0025
1079.00,-0.0025
1078.00,-0.0025
1077.00,-0.0024
1076.00,-0.0024
1075.00,-0.0024
1074.00,-0.0024
1073.00,-0.0024
1072.00,-0.0024
1071.00,-0.0024
1070.00,-0.0024
1069.00,-0.0024
1068.00,-0.0024
1067.00,-0.0024
1066.00,-0.0024
1065.00,-0.0023
1064.00,-0.0023
1063.00,-0.0023
1062.00,-0.0023
1061.00,-0.0023
1060.00,-0.0023
1059.00,-0.0023
1058.00,-0.0024
1057.00,-0.0024
1056.00,-0.0024
1055.00,-0.0024
1054.00,-0.0024
1053.00,-0.0024
1052.00,-0.0024
1051.00,-0.0024
1050.00,-0.0024
1049.00,-0.0023
1048.00,-0.0023
1047.00,-0.0023
1046.00,-0.0023
1045.00,-0.0023
1044.00,-0.0023
1043.00,-0.0023
1042.00,-0.0023
1041.00,-0.0023
1040.00,-0.0023
1039.00,-0.0023
1038.00,-0.0023
1037.00,-0.0023
1036.00,-0.0023
1035.00,-0.0023
1034.00,-0.0023
1033.00,-0.0023
1032.00,-0.0023
1031.00,-0.0023
1030.00,-0.0023
1029.00,-0.0023
1028.00,-0.0023
1027.00,-0.0023
1026.00,-0.0023
1025.00,-0.0023
1024.00,-0.0023
1023.00,-0.0023
1022.00,-0.0023
1021.00,-0.0023
1020.00,-0.0022
1019.00,-0.0022
1018.00,-0.0022
1017.00,-0.0022
1016.00,-0.0022
1015.00,-0.0022
1014.00,-0.0022
1013.00,-0.0022
1012.00,-0.0022
1011.00,-0.0022
1010.00,-0.0022
1009.00,-0.0022
1008.00,-0.0022
1007.00,-0.0022
1006.00,-0.0022
1005.00,-0.0021
1004.00,-0.0021
1003.00,-0.0021
1002.00,-0.0021
1001.00,-0.0022
1000.00,-0.0022
999.00,-0.0022
998.00,-0.0022
997.00,-0.0021
996.00,-0.0021
995.00,-0.0022
994.00,-0.0022
993.00,-0.0022
992.00,-0.0022
991.00,-0.0022
990.00,-0.0022
989.00,-0.0022
988.00,-0.0022
987.00,-0.0022
986.00,-0.0022
985.00,-0.0022
984.00,-0.0022
983.00,-0.0022
982.00,-0.0022
981.00,-0.0022
980.00,-0.0022
979.00,-0.0022
978.00,-0.0022
977.00,-0.0022
976.00,-0.0022
975.00,-0.0022
974.00,-0.0022
973.00,-0.0022
972.00,-0.0022
971.00,-0.0022
970.00,-0.0022
969.00,-0.0022
968.00,-0.0022
967.00,-0.0022
966.00,-0.0022
965.00,-0.0022
964.00,-0.0022
963.00,-0.0022
962.00,-0.0022
961.00,-0.0023
960.00,-0.0023
959.00,-0.0023
958.00,-0.0023
957.00,-0.0023
956.00,-0.0023
955.00,-0.0023
954.00,-0.0023
953.00,-0.0023
952.00,-0.0022
951.00,-0.0022
950.00,-0.0022
949.00,-0.0022
948.00,-0.0023
947.00,-0.0023
946.00,-0.0023
945.00,-0.0023
944.00,-0.0023
943.00,-0.0023
942.00,-0.0023
941.00,-0.0023
940.00,-0.0023
939.00,-0.0023
938.00,-0.0023
937.00,-0.0023
936.00,-0.0023
935.00,-0.0023
934.00,-0.0023
933.00,-0.0023
932.00,-0.0023
931.00,-0.0023
930.00,-0.0023
929.00,-0.0023
928.00,-0.0023
927.00,-0.0023
926.00,-0.0023
925.00,-0.0023
924.00,-0.0023
923.00,-0.0023
922.00,-0.0023
921.00,-0.0024
920.00,-0.0024
919.00,-0.0023
918.00,-0.0023
917.00,-0.0023
916.00,-0.0023
915.00,-0.0023
914.00,-0.0024
913.00,-0.0024
912.00,-0.0024
911.00,-0.0024
910.00,-0.0024
909.00,-0.0024
908.00,-0.0024
907.00,-0.0023
906.00,-0.0023
905.00,-0.0023
904.00,-0.0023
903.00,-0.0023
902.00,-0.0023
901.00,-0.0023
900.00,-0.0023
899.00,-0.0023
898.00,-0.0023
897.00,-0.0023
896.00,-0.0023
895.00,-0.0023
894.00,-0.0023
893.00,-0.0023
892.00,-0.0023
891.00,-0.0023
890.00,-0.0023
889.00,-0.0023
888.00,-0.0023
887.00,-0.0023
886.00,-0.0023
885.00,-0.0023
884.00,-0.0023
883.00,-0.0023
882.00,-0.0023
881.00,-0.0023
880.00,-0.0023
879.00,-0.0023
878.00,-0.0023
877.00,-0.0023
876.00,-0.0023
875.00,-0.0023
874.00,-0.0022
873.00,-0.0022
872.00,-0.0022
871.00,-0.0023
870.00,-0.0023
869.00,-0.0022
868.00,-0.0022
867.00,-0.0022
866.00,-0.0022
865.00,-0.0022
864.00,-0.0022
863.00,-0.0022
862.00,-0.0022
861.00,-0.0022
860.00,-0.0022
859.00,-0.0022
858.00,-0.0022
857.00,-0.0022
856.00,-0.0022
855.00,-0.0022
854.00,-0.0022
853.00,-0.0022
852.00,-0.0022
851.00,-0.0022
850.00,-0.0022
849.00,-0.0022
848.00,-0.0022
847.00,-0.0022
846.00,-0.0022
845.00,-0.0022
844.00,-0.0022
843.00,-0.0022
842.00,-0.0022
841.00,-0.0022
840.00,-0.0022
839.00,-0.0022
838.00,-0.0022
837.00,-0.0022
836.00,-0.0022
835.00,-0.0022
834.00,-0.0022
833.00,-0.0022
832.00,-0.0022
831.00,-0.0022
830.00,-0.0022
829.00,-0.0023
828.00,-0.0022
827.00,-0.0022
826.00,-0.0022
825.00,-0.0022
824.00,-0.0022
823.00,-0.0022
822.00,-0.0022
821.00,-0.0022
820.00,-0.0022
819.00,-0.0022
818.00,-0.0022
817.00,-0.0022
816.00,-0.0022
815.00,-0.0022
814.00,-0.0023
813.00,-0.0023
812.00,-0.0023
811.00,-0.0022
810.00,-0.0022
809.00,-0.0022
808.00,-0.0022
807.00,-0.0022
806.00,-0.0022
805.00,-0.0022
804.00,-0.0022
803.00,-0.0022
802.00,-0.0022
801.00,-0.0022
800.00,-0.0022
799.00,-0.0022
798.00,-0.0022
797.00,-0.0022
796.00,-0.0022
795.00,-0.0022
794.00,-0.0022
793.00,-0.0022
792.00,-0.0023
791.00,-0.0023
790.00,-0.0023
789.00,-0.0022
788.00,-0.0022
787.00,-0.0022
786.00,-0.0022
785.00,-0.0022
784.00,-0.0022
783.00,-0.0022
782.00,-0.0021
781.00,-0.0021
780.00,-0.0021
779.00,-0.0022
778.00,-0.0022
777.00,-0.0022
776.00,-0.0022
775.00,-0.0022
774.00,-0.0022
773.00,-0.0022
772.00,-0.0022
771.00,-0.0022
770.00,-0.0022
769.00,-0.0022
768.00,-0.0022
767.00,-0.0022
766.00,-0.0022
765.00,-0.0022
764.00,-0.0023
763.00,-0.0022
762.00,-0.0022
761.00,-0.0022
760.00,-0.0022
759.00,-0.0023
758.00,-0.0023
757.00,-0.0022
756.00,-0.0022
755.00,-0.0022
754.00,-0.0022
753.00,-0.0022
752.00,-0.0022
751.00,-0.0022
750.00,-0.0022
749.00,-0.0022
748.00,-0.0022
747.00,-0.0022
746.00,-0.0022
745.00,-0.0022
744.00,-0.0022
743.00,-0.0022
742.00,-0.0022
741.00,-0.0022
740.00,-0.0022
739.00,-0.0021
738.00,-0.0021
737.00,-0.0021
736.00,-0.0021
735.00,-0.0022
734.00,-0.0022
733.00,-0.0022
732.00,-0.0021
731.00,-0.0021
730.00,-0.0021
729.00,-0.0022
728.00,-0.0022
727.00,-0.0022
726.00,-0.0022
725.00,-0.0022
724.00,-0.0022
723.00,-0.0022
722.00,-0.0022
721.00,-0.0022
720.00,-0.0022
719.00,-0.0022
718.00,-0.0022
717.00,-0.0022
716.00,-0.0022
715.00,-0.0022
714.00,-0.0022
713.00,-0.0022
712.00,-0.0023
711.00,-0.0023
710.00,-0.0023
709.00,-0.0023
708.00,-0.0023
707.00,-0.0022
706.00,-0.0022
705.00,-0.0023
704.00,-0.0023
703.00,-0.0022
702.00,-0.0022
701.00,-0.0022
700.00,-0.0023
699.00,-0.0023
698.00,-0.0023
697.00,-0.0023
696.00,-0.0023
695.00,-0.0023
694.00,-0.0023
693.00,-0.0023
692.00,-0.0023
691.00,-0.0023
690.00,-0.0023
689.00,-0.0024
688.00,-0.0024
687.00,-0.0024
686.00,-0.0024
685.00,-0.0025
684.00,-0.0025
683.00,-0.0026
682.00,-0.0026
681.00,-0.0026
680.00,-0.0026
679.00,-0.0025
678.00,-0.0025
677.00,-0.0025
676.00,-0.0024
675.00,-0.0024
674.00,-0.0024
673.00,-0.0025
672.00,-0.0026
671.00,-0.0027
670.00,-0.0030
669.00,-0.0034
668.00,-0.0037
667.00,-0.0035
666.00,-0.0032
665.00,-0.0029
664.00,-0.0026
663.00,-0.0025
662.00,-0.0024
661.00,-0.0024
660.00,-0.0024
659.00,-0.0024
658.00,-0.0025
657.00,-0.0025
656.00,-0.0025
655.00,-0.0025
654.00,-0.0026
653.00,-0.0026
652.00,-0.0025
651.00,-0.0025
650.00,-0.0025
649.00,-0.0025
648.00,-0.0025
647.00,-0.0024
646.00,-0.0025
645.00,-0.0025
644.00,-0.0025
643.00,-0.0024
642.00,-0.0024
641.00,-0.0024
640.00,-0.0024
639.00,-0.0024
638.00,-0.0024
637.00,-0.0024
636.00,-0.0024
635.00,-0.0024
634.00,-0.0025
633.00,-0.0024
632.00,-0.0024
631.00,-0.0024
630.00,-0.0024
629.00,-0.0024
628.00,-0.0024
627.00,-0.0023
626.00,-0.0023
625.00,-0.0023
624.00,-0.0023
623.00,-0.0024
622.00,-0.0024
621.00,-0.0025
620.00,-0.0025
619.00,-0.0024
618.00,-0.0024
617.00,-0.0024
616.00,-0.0024
615.00,-0.0024
614.00,-0.0025
613.00,-0.0025
612.00,-0.0024
611.00,-0.0024
610.00,-0.0024
609.00,-0.0024
608.00,-0.0025
607.00,-0.0025
606.00,-0.0025
605.00,-0.0026
604.00,-0.0026
603.00,-0.0026
602.00,-0.0026
601.00,-0.0025
600.00,-0.0025
599.00,-0.0026
598.00,-0.0027
597.00,-0.0027
596.00,-0.0027
595.00,-0.0026
594.00,-0.0027
593.00,-0.0027
592.00,-0.0026
591.00,-0.0026
590.00,-0.0026
589.00,-0.0027
588.00,-0.0026
587.00,-0.0025
586.00,-0.0024
585.00,-0.0024
584.00,-0.0025
583.00,-0.0025
582.00,-0.0026
581.00,-0.0027
580.00,-0.0026
579.00,-0.0026
578.00,-0.0026
577.00,-0.0026
576.00,-0.0026
575.00,-0.0026
574.00,-0.0026
573.00,-0.0026
572.00,-0.0026
571.00,-0.0026
570.00,-0.0026
569.00,-0.0026
568.00,-0.0025
567.00,-0.0025
566.00,-0.0026
565.00,-0.0026
564.00,-0.0026
563.00,-0.0026
562.00,-0.0027
561.00,-0.0027
560.00,-0.0027
559.00,-0.0026
558.00,-0.0026
557.00,-0.0026
556.00,-0.0026
555.00,-0.0026
554.00,-0.0026
553.00,-0.0026
552.00,-0.0026
551.00,-0.0025
550.00,-0.0024
549.00,-0.0025
548.00,-0.0025
547.00,-0.0026
546.00,-0.0027
545.00,-0.0027
544.00,-0.0026
543.00,-0.0025
542.00,-0.0025
541.00,-0.0025
540.00,-0.0025
539.00,-0.0026
538.00,-0.0026
537.00,-0.0026
536.00,-0.0025
535.00,-0.0025
534.00,-0.0025
533.00,-0.0026
532.00,-0.0026
531.00,-0.0026
530.00,-0.0026
529.00,-0.0026
528.00,-0.0025
527.00,-0.0025
526.00,-0.0025
525.00,-0.0026
524.00,-0.0026
523.00,-0.0026
522.00,-0.0026
521.00,-0.0026
520.00,-0.0026
519.00,-0.0026
518.00,-0.0027
517.00,-0.0026
516.00,-0.0026
515.00,-0.0025
514.00,-0.0025
513.00,-0.0026
512.00,-0.0026
511.00,-0.0026
510.00,-0.0027
509.00,-0.0027
508.00,-0.0027
507.00,-0.0027
506.00,-0.0026
505.00,-0.0026
504.00,-0.0025
503.00,-0.0025
502.00,-0.0026
501.00,-0.0026
500.00,-0.0027
