Created as New Dataset,Sample 351 By Analyst Date Tuesday, February 04 2025
cm-1,A
4000.00,-0.0016
3999.00,-0.0016
3998.00,-0.0016
3997.00,-0.0016
3996.00,-0.0016
3995.00,-0.0016
3994.00,-0.0016
3993.00,-0.0016
3992.00,-0.0016
3991.00,-0.0016
3990.00,-0.0016
3989.00,-0.0016
3988.00,-0.0016
3987.00,-0.0016
3986.00,-0.0015
3985.00,-0.0015
3984.00,-0.0015
3983.00,-0.0015
3982.00,-0.0015
3981.00,-0.0015
3980.00,-0.0016
3979.00,-0.0016
3978.00,-0.0015
3977.00,-0.0015
3976.00,-0.0015
3975.00,-0.0016
3974.00,-0.0016
3973.00,-0.0015
3972.00,-0.0015
3971.00,-0.0015
3970.00,-0.0015
3969.00,-0.0016
3968.00,-0.0016
3967.00,-0.0016
3966.00,-0.0015
3965.00,-0.0015
3964.00,-0.0015
3963.00,-0.0015
3962.00,-0.0015
3961.00,-0.0015
3960.00,-0.0015
3959.00,-0.0015
3958.00,-0.0015
3957.00,-0.0015
3956.00,-0.0015
3955.00,-0.0015
3954.00,-0.0015
3953.00,-0.0015
3952.00,-0.0015
3951.00,-0.0015
3950.00,-0.0014
3949.00,-0.0014
3948.00,-0.0014
3947.00,-0.0014
3946.00,-0.0014
3945.00,-0.0013
3944.00,-0.0014
3943.00,-0.0014
3942.00,-0.0014
3941.00,-0.0014
3940.00,-0.0014
3939.00,-0.0014
3938.00,-0.0015
3937.00,-0.0015
3936.00,-0.0014
3935.00,-0.0014
3934.00,-0.0013
3933.00,-0.0013
3932.00,-0.0013
3931.00,-0.0014
3930.00,-0.0014
3929.00,-0.0014
3928.00,-0.0014
3927.00,-0.0014
3926.00,-0.0014
3925.00,-0.0014
3924.00,-0.0014
3923.00,-0.0014
3922.00,-0.0013
3921.00,-0.0013
3920.00,-0.0012
3919.00,-0.0012
3918.00,-0.0013
3917.00,-0.0013
3916.00,-0.0013
3915.00,-0.0014
3914.00,-0.0014
3913.00,-0.0014
3912.00,-0.0015
3911.00,-0.0015
3910.00,-0.0015
3909.00,-0.0015
3908.00,-0.0015
3907.00,-0.0014
3906.00,-0.0013
3905.00,-0.0012
3904.00,-0.0011
3903.00,-0.0010
3902.00,-0.0009
3901.00,-0.0008
3900.00,-0.0009
3899.00,-0.0010
3898.00,-0.0011
3897.00,-0.0012
3896.00,-0.0012
3895.00,-0.0012
3894.00,-0.0013
3893.00,-0.0013
3892.00,-0.0013
3891.00,-0.0013
3890.00,-0.0013
3889.00,-0.0013
3888.00,-0.0011
3887.00,-0.0011
3886.00,-0.0011
3885.00,-0.0012
3884.00,-0.0012
3883.00,-0.0011
3882.00,-0.0010
3881.00,-0.0011
3880.00,-0.0012
3879.00,-0.0012
3878.00,-0.0012
3877.00,-0.0011
3876.00,-0.0011
3875.00,-0.0012
3874.00,-0.0012
3873.00,-0.0013
3872.00,-0.0011
3871.00,-0.0010
3870.00,-0.0010
3869.00,-0.0011
3868.00,-0.0011
3867.00,-0.0010
3866.00,-0.0009
3865.00,-0.0010
3864.00,-0.0011
3863.00,-0.0011
3862.00,-0.0011
3861.00,-0.0011
3860.00,-0.0011
3859.00,-0.0012
3858.00,-0.0014
3857.00,-0.0015
3856.00,-0.0016
3855.00,-0.0015
3854.00,-0.0014
3853.00,-0.0012
3852.00,-0.0012
3851.00,-0.0011
3850.00,-0.0010
3849.00,-0.0010
3848.00,-0.0011
3847.00,-0.0011
3846.00,-0.0012
3845.00,-0.0012
3844.00,-0.0012
3843.00,-0.0012
3842.00,-0.0012
3841.00,-0.0011
3840.00,-0.0011
3839.00,-0.0010
3838.00,-0.0010
3837.00,-0.0010
3836.00,-0.0010
3835.00,-0.0010
3834.00,-0.0010
3833.00,-0.0010
3832.00,-0.0011
3831.00,-0.0011
3830.00,-0.0012
3829.00,-0.0012
3828.00,-0.0012
3827.00,-0.0012
3826.00,-0.0012
3825.00,-0.0012
3824.00,-0.0012
3823.00,-0.0011
3822.00,-0.0010
3821.00,-0.0011
3820.00,-0.0011
3819.00,-0.0011
3818.00,-0.0010
3817.00,-0.0010
3816.00,-0.0011
3815.00,-0.0012
3814.00,-0.0013
3813.00,-0.0013
3812.00,-0.0013
3811.00,-0.0013
3810.00,-0.0014
3809.00,-0.0014
3808.00,-0.0013
3807.00,-0.0013
3806.00,-0.0013
3805.00,-0.0013
3804.00,-0.0012
3803.00,-0.0011
3802.00,-0.0011
3801.00,-0.0012
3800.00,-0.0012
3799.00,-0.0011
3798.00,-0.0011
3797.00,-0.0011
3796.00,-0.0012
3795.00,-0.0012
3794.00,-0.0013
3793.00,-0.0013
3792.00,-0.0014
3791.00,-0.0014
3790.00,-0.0015
3789.00,-0.0015
3788.00,-0.0015
3787.00,-0.0014
3786.00,-0.0014
3785.00,-0.0014
3784.00,-0.0014
3783.00,-0.0014
3782.00,-0.0014
3781.00,-0.0013
3780.00,-0.0013
3779.00,-0.0013
3778.00,-0.0014
3777.00,-0.0014
3776.00,-0.0014
3775.00,-0.0014
3774.00,-0.0014
3773.00,-0.0014
3772.00,-0.0013
3771.00,-0.0013
3770.00,-0.0013
3769.00,-0.0013
3768.00,-0.0012
3767.00,-0.0011
3766.00,-0.0011
3765.00,-0.0012
3764.00,-0.0012
3763.00,-0.0012
3762.00,-0.0011
3761.00,-0.0011
3760.00,-0.0011
3759.00,-0.0012
3758.00,-0.0011
3757.00,-0.0011
3756.00,-0.0011
3755.00,-0.0011
3754.00,-0.0010
3753.00,-0.0010
3752.00,-0.0010
3751.00,-0.0009
3750.00,-0.0008
3749.00,-0.0008
3748.00,-0.0008
3747.00,-0.0007
3746.00,-0.0007
3745.00,-0.0007
3744.00,-0.0008
3743.00,-0.0009
3742.00,-0.0008
3741.00,-0.0007
3740.00,-0.0006
3739.00,-0.0006
3738.00,-0.0005
3737.00,-0.0005
3736.00,-0.0006
3735.00,-0.0007
3734.00,-0.0007
3733.00,-0.0007
3732.00,-0.0007
3731.00,-0.0008
3730.00,-0.0009
3729.00,-0.0009
3728.00,-0.0009
3727.00,-0.0009
3726.00,-0.0010
3725.00,-0.0010
3724.00,-0.0010
3723.00,-0.0010
3722.00,-0.0010
3721.00,-0.0011
3720.00,-0.0011
3719.00,-0.0011
3718.00,-0.0011
3717.00,-0.0012
3716.00,-0.0012
3715.00,-0.0011
3714.00,-0.0011
3713.00,-0.0010
3712.00,-0.0010
3711.00,-0.0010
3710.00,-0.0010
3709.00,-0.0010
3708.00,-0.0010
3707.00,-0.0011
3706.00,-0.0012
3705.00,-0.0012
3704.00,-0.0012
3703.00,-0.0013
3702.00,-0.0013
3701.00,-0.0013
3700.00,-0.0013
3699.00,-0.0013
3698.00,-0.0013
3697.00,-0.0013
3696.00,-0.0013
3695.00,-0.0013
3694.00,-0.0013
3693.00,-0.0013
3692.00,-0.0012
3691.00,-0.0012
3690.00,-0.0012
3689.00,-0.0011
3688.00,-0.0011
3687.00,-0.0011
3686.00,-0.0011
3685.00,-0.0011
3684.00,-0.0011
3683.00,-0.0012
3682.00,-0.0012
3681.00,-0.0012
3680.00,-0.0012
3679.00,-0.0012
3678.00,-0.0011
3677.00,-0.0009
3676.00,-0.0009
3675.00,-0.0009
3674.00,-0.0009
3673.00,-0.0008
3672.00,-0.0007
3671.00,-0.0007
3670.00,-0.0009
3669.00,-0.0010
3668.00,-0.0011
3667.00,-0.0011
3666.00,-0.0011
3665.00,-0.0012
3664.00,-0.0012
3663.00,-0.0013
3662.00,-0.0013
3661.00,-0.0014
3660.00,-0.0014
3659.00,-0.0013
3658.00,-0.0013
3657.00,-0.0012
3656.00,-0.0012
3655.00,-0.0012
3654.00,-0.0011
3653.00,-0.0009
3652.00,-0.0008
3651.00,-0.0007
3650.00,-0.0007
3649.00,-0.0006
3648.00,-0.0006
3647.00,-0.0006
3646.00,-0.0007
3645.00,-0.0008
3644.00,-0.0010
3643.00,-0.0011
3642.00,-0.0012
3641.00,-0.0013
3640.00,-0.0013
3639.00,-0.0013
3638.00,-0.0013
3637.00,-0.0013
3636.00,-0.0013
3635.00,-0.0012
3634.00,-0.0012
3633.00,-0.0012
3632.00,-0.0011
3631.00,-0.0010
3630.00,-0.0009
3629.00,-0.0009
3628.00,-0.0009
3627.00,-0.0009
3626.00,-0.0009
3625.00,-0.0009
3624.00,-0.0010
3623.00,-0.0011
3622.00,-0.0012
3621.00,-0.0012
3620.00,-0.0012
3619.00,-0.0011
3618.00,-0.0010
3617.00,-0.0009
3616.00,-0.0009
3615.00,-0.0008
3614.00,-0.0008
3613.00,-0.0008
3612.00,-0.0008
3611.00,-0.0008
3610.00,-0.0008
3609.00,-0.0008
3608.00,-0.0009
3607.00,-0.0010
3606.00,-0.0011
3605.00,-0.0011
3604.00,-0.0011
3603.00,-0.0012
3602.00,-0.0012
3601.00,-0.0012
3600.00,-0.0012
3599.00,-0.0012
3598.00,-0.0012
3597.00,-0.0011
3596.00,-0.0011
3595.00,-0.0011
3594.00,-0.0011
3593.00,-0.0011
3592.00,-0.0011
3591.00,-0.0010
3590.00,-0.0010
3589.00,-0.0009
3588.00,-0.0010
3587.00,-0.0010
3586.00,-0.0010
3585.00,-0.0010
3584.00,-0.0011
3583.00,-0.0011
3582.00,-0.0012
3581.00,-0.0013
3580.00,-0.0013
3579.00,-0.0014
3578.00,-0.0014
3577.00,-0.0014
3576.00,-0.0013
3575.00,-0.0013
3574.00,-0.0013
3573.00,-0.0013
3572.00,-0.0013
3571.00,-0.0012
3570.00,-0.0011
3569.00,-0.0009
3568.00,-0.0009
3567.00,-0.0009
3566.00,-0.0009
3565.00,-0.0010
3564.00,-0.0010
3563.00,-0.0010
3562.00,-0.0011
3561.00,-0.0012
3560.00,-0.0013
3559.00,-0.0013
3558.00,-0.0013
3557.00,-0.0013
3556.00,-0.0013
3555.00,-0.0013
3554.00,-0.0013
3553.00,-0.0013
3552.00,-0.0013
3551.00,-0.0013
3550.00,-0.0013
3549.00,-0.0012
3548.00,-0.0012
3547.00,-0.0012
3546.00,-0.0012
3545.00,-0.0012
3544.00,-0.0012
3543.00,-0.0012
3542.00,-0.0013
3541.00,-0.0013
3540.00,-0.0013
3539.00,-0.0014
3538.00,-0.0014
3537.00,-0.0014
3536.00,-0.0014
3535.00,-0.0014
3534.00,-0.0014
3533.00,-0.0014
3532.00,-0.0014
3531.00,-0.0013
3530.00,-0.0013
3529.00,-0.0013
3528.00,-0.0013
3527.00,-0.0013
3526.00,-0.0012
3525.00,-0.0012
3524.00,-0.0012
3523.00,-0.0013
3522.00,-0.0013
3521.00,-0.0013
3520.00,-0.0013
3519.00,-0.0014
3518.00,-0.0014
3517.00,-0.0014
3516.00,-0.0014
3515.00,-0.0014
3514.00,-0.0014
3513.00,-0.0014
3512.00,-0.0014
3511.00,-0.0014
3510.00,-0.0014
3509.00,-0.0014
3508.00,-0.0014
3507.00,-0.0014
3506.00,-0.0013
3505.00,-0.0013
3504.00,-0.0013
3503.00,-0.0013
3502.00,-0.0013
3501.00,-0.0014
3500.00,-0.0014
3499.00,-0.0014
3498.00,-0.0014
3497.00,-0.0014
3496.00,-0.0014
3495.00,-0.0014
3494.00,-0.0014
3493.00,-0.0014
3492.00,-0.0014
3491.00,-0.0014
3490.00,-0.0014
3489.00,-0.0014
3488.00,-0.0014
3487.00,-0.0014
3486.00,-0.0014
3485.00,-0.0014
3484.00,-0.0014
3483.00,-0.0014
3482.00,-0.0015
3481.00,-0.0015
3480.00,-0.0014
3479.00,-0.0014
3478.00,-0.0014
3477.00,-0.0015
3476.00,-0.0015
3475.00,-0.0015
3474.00,-0.0015
3473.00,-0.0015
3472.00,-0.0015
3471.00,-0.0015
3470.00,-0.0015
3469.00,-0.0014
3468.00,-0.0014
3467.00,-0.0014
3466.00,-0.0015
3465.00,-0.0015
3464.00,-0.0015
3463.00,-0.0015
3462.00,-0.0015
3461.00,-0.0015
3460.00,-0.0015
3459.00,-0.0015
3458.00,-0.0015
3457.00,-0.0015
3456.00,-0.0015
3455.00,-0.0015
3454.00,-0.0015
3453.00,-0.0015
3452.00,-0.0015
3451.00,-0.0015
3450.00,-0.0015
3449.00,-0.0015
3448.00,-0.0015
3447.00,-0.0015
3446.00,-0.0014
3445.00,-0.0014
3444.00,-0.0014
3443.00,-0.0014
3442.00,-0.0015
3441.00,-0.0015
3440.00,-0.0015
3439.00,-0.0015
3438.00,-0.0015
3437.00,-0.0015
3436.00,-0.0015
3435.00,-0.0015
3434.00,-0.0015
3433.00,-0.0015
3432.00,-0.0015
3431.00,-0.0015
3430.00,-0.0015
3429.00,-0.0015
3428.00,-0.0015
3427.00,-0.0015
3426.00,-0.0015
3425.00,-0.0015
3424.00,-0.0015
3423.00,-0.0015
3422.00,-0.0015
3421.00,-0.0015
3420.00,-0.0015
3419.00,-0.0015
3418.00,-0.0015
3417.00,-0.0015
3416.00,-0.0015
3415.00,-0.0015
3414.00,-0.0015
3413.00,-0.0015
3412.00,-0.0015
3411.00,-0.0015
3410.00,-0.0015
3409.00,-0.0015
3408.00,-0.0015
3407.00,-0.0015
3406.00,-0.0015
3405.00,-0.0015
3404.00,-0.0015
3403.00,-0.0015
3402.00,-0.0015
3401.00,-0.0015
3400.00,-0.0015
3399.00,-0.0015
3398.00,-0.0015
3397.00,-0.0015
3396.00,-0.0015
3395.00,-0.0015
3394.00,-0.0015
3393.00,-0.0015
3392.00,-0.0015
3391.00,-0.0015
3390.00,-0.0015
3389.00,-0.0015
3388.00,-0.0015
3387.00,-0.0015
3386.00,-0.0015
3385.00,-0.0015
3384.00,-0.0015
3383.00,-0.0015
3382.00,-0.0015
3381.00,-0.0015
3380.00,-0.0015
3379.00,-0.0015
3378.00,-0.0015
3377.00,-0.0015
3376.00,-0.0015
3375.00,-0.0015
3374.00,-0.0015
3373.00,-0.0015
3372.00,-0.0015
3371.00,-0.0015
3370.00,-0.0015
3369.00,-0.0015
3368.00,-0.0015
3367.00,-0.0015
3366.00,-0.0015
3365.00,-0.0015
3364.00,-0.0015
3363.00,-0.0015
3362.00,-0.0015
3361.00,-0.0015
3360.00,-0.0015
3359.00,-0.0015
3358.00,-0.0015
3357.00,-0.0015
3356.00,-0.0015
3355.00,-0.0015
3354.00,-0.0015
3353.00,-0.0015
3352.00,-0.0015
3351.00,-0.0015
3350.00,-0.0015
3349.00,-0.0015
3348.00,-0.0015
3347.00,-0.0015
3346.00,-0.0015
3345.00,-0.0015
3344.00,-0.0015
3343.00,-0.0015
3342.00,-0.0015
3341.00,-0.0015
3340.00,-0.0015
3339.00,-0.0015
3338.00,-0.0015
3337.00,-0.0015
3336.00,-0.0015
3335.00,-0.0015
3334.00,-0.0015
3333.00,-0.0015
3332.00,-0.0015
3331.00,-0.0015
3330.00,-0.0015
3329.00,-0.0015
3328.00,-0.0015
3327.00,-0.0015
3326.00,-0.0015
3325.00,-0.0015
3324.00,-0.0015
3323.00,-0.0015
3322.00,-0.0015
3321.00,-0.0015
3320.00,-0.0015
3319.00,-0.0015
3318.00,-0.0015
3317.00,-0.0015
3316.00,-0.0015
3315.00,-0.0015
3314.00,-0.0015
3313.00,-0.0015
3312.00,-0.0015
3311.00,-0.0015
3310.00,-0.0015
3309.00,-0.0015
3308.00,-0.0015
3307.00,-0.0015
3306.00,-0.0015
3305.00,-0.0015
3304.00,-0.0015
3303.00,-0.0015
3302.00,-0.0015
3301.00,-0.0015
3300.00,-0.0015
3299.00,-0.0015
3298.00,-0.0015
3297.00,-0.0015
3296.00,-0.0015
3295.00,-0.0015
3294.00,-0.0015
3293.00,-0.0015
3292.00,-0.0015
3291.00,-0.0015
3290.00,-0.0015
3289.00,-0.0015
3288.00,-0.0015
3287.00,-0.0015
3286.00,-0.0015
3285.00,-0.0015
3284.00,-0.0015
3283.00,-0.0015
3282.00,-0.0015
3281.00,-0.0015
3280.00,-0.0015
3279.00,-0.0015
3278.00,-0.0015
3277.00,-0.0015
3276.00,-0.0015
3275.00,-0.0015
3274.00,-0.0015
3273.00,-0.0015
3272.00,-0.0015
3271.00,-0.0015
3270.00,-0.0015
3269.00,-0.0015
3268.00,-0.0015
3267.00,-0.0016
3266.00,-0.0016
3265.00,-0.0015
3264.00,-0.0015
3263.00,-0.0015
3262.00,-0.0015
3261.00,-0.0015
3260.00,-0.0015
3259.00,-0.0015
3258.00,-0.0015
3257.00,-0.0015
3256.00,-0.0015
3255.00,-0.0015
3254.00,-0.0015
3253.00,-0.0015
3252.00,-0.0015
3251.00,-0.0015
3250.00,-0.0015
3249.00,-0.0015
3248.00,-0.0015
3247.00,-0.0015
3246.00,-0.0015
3245.00,-0.0015
3244.00,-0.0015
3243.00,-0.0015
3242.00,-0.0015
3241.00,-0.0015
3240.00,-0.0015
3239.00,-0.0015
3238.00,-0.0015
3237.00,-0.0015
3236.00,-0.0015
3235.00,-0.0015
3234.00,-0.0015
3233.00,-0.0015
3232.00,-0.0015
3231.00,-0.0015
3230.00,-0.0015
3229.00,-0.0015
3228.00,-0.0015
3227.00,-0.0015
3226.00,-0.0015
3225.00,-0.0015
3224.00,-0.0015
3223.00,-0.0015
3222.00,-0.0015
3221.00,-0.0015
3220.00,-0.0015
3219.00,-0.0015
3218.00,-0.0015
3217.00,-0.0015
3216.00,-0.0015
3215.00,-0.0015
3214.00,-0.0015
3213.00,-0.0015
3212.00,-0.0015
3211.00,-0.0015
3210.00,-0.0015
3209.00,-0.0015
3208.00,-0.0015
3207.00,-0.0015
3206.00,-0.0015
3205.00,-0.0015
3204.00,-0.0015
3203.00,-0.0015
3202.00,-0.0015
3201.00,-0.0015
3200.00,-0.0015
3199.00,-0.0015
3198.00,-0.0015
3197.00,-0.0015
3196.00,-0.0015
3195.00,-0.0015
3194.00,-0.0015
3193.00,-0.0015
3192.00,-0.0015
3191.00,-0.0015
3190.00,-0.0015
3189.00,-0.0015
3188.00,-0.0015
3187.00,-0.0015
3186.00,-0.0015
3185.00,-0.0015
3184.00,-0.0015
3183.00,-0.0015
3182.00,-0.0015
3181.00,-0.0015
3180.00,-0.0015
3179.00,-0.0015
3178.00,-0.0015
3177.00,-0.0015
3176.00,-0.0015
3175.00,-0.0015
3174.00,-0.0015
3173.00,-0.0015
3172.00,-0.0015
3171.00,-0.0015
3170.00,-0.0015
3169.00,-0.0015
3168.00,-0.0015
3167.00,-0.0015
3166.00,-0.0015
3165.00,-0.0015
3164.00,-0.0015
3163.00,-0.0015
3162.00,-0.0015
3161.00,-0.0015
3160.00,-0.0015
3159.00,-0.0015
3158.00,-0.0015
3157.00,-0.0015
3156.00,-0.0015
3155.00,-0.0015
3154.00,-0.0015
3153.00,-0.0015
3152.00,-0.0015
3151.00,-0.0015
3150.00,-0.0015
3149.00,-0.0015
3148.00,-0.0015
3147.00,-0.0015
3146.00,-0.0015
3145.00,-0.0015
3144.00,-0.0015
3143.00,-0.0015
3142.00,-0.0015
3141.00,-0.0015
3140.00,-0.0015
3139.00,-0.0015
3138.00,-0.0015
3137.00,-0.0015
3136.00,-0.0015
3135.00,-0.0015
3134.00,-0.0015
3133.00,-0.0015
3132.00,-0.0015
3131.00,-0.0015
3130.00,-0.0015
3129.00,-0.0015
3128.00,-0.0015
3127.00,-0.0015
3126.00,-0.0015
3125.00,-0.0015
3124.00,-0.0015
3123.00,-0.0015
3122.00,-0.0015
3121.00,-0.0015
3120.00,-0.0015
3119.00,-0.0015
3118.00,-0.0015
3117.00,-0.0015
3116.00,-0.0015
3115.00,-0.0015
3114.00,-0.0015
3113.00,-0.0015
3112.00,-0.0015
3111.00,-0.0015
3110.00,-0.0015
3109.00,-0.0015
3108.00,-0.0015
3107.00,-0.0015
3106.00,-0.0015
3105.00,-0.0015
3104.00,-0.0015
3103.00,-0.0015
3102.00,-0.0015
3101.00,-0.0015
3100.00,-0.0015
3099.00,-0.0015
3098.00,-0.0015
3097.00,-0.0015
3096.00,-0.0015
3095.00,-0.0015
3094.00,-0.0015
3093.00,-0.0015
3092.00,-0.0015
3091.00,-0.0015
3090.00,-0.0015
3089.00,-0.0015
3088.00,-0.0015
3087.00,-0.0015
3086.00,-0.0015
3085.00,-0.0015
3084.00,-0.0015
3083.00,-0.0015
3082.00,-0.0015
3081.00,-0.0015
3080.00,-0.0015
3079.00,-0.0015
3078.00,-0.0015
3077.00,-0.0015
3076.00,-0.0015
3075.00,-0.0015
3074.00,-0.0015
3073.00,-0.0015
3072.00,-0.0015
3071.00,-0.0015
3070.00,-0.0015
3069.00,-0.0015
3068.00,-0.0015
3067.00,-0.0015
3066.00,-0.0015
3065.00,-0.0015
3064.00,-0.0015
3063.00,-0.0015
3062.00,-0.0015
3061.00,-0.0015
3060.00,-0.0015
3059.00,-0.0015
3058.00,-0.0015
3057.00,-0.0015
3056.00,-0.0015
3055.00,-0.0015
3054.00,-0.0015
3053.00,-0.0015
3052.00,-0.0015
3051.00,-0.0015
3050.00,-0.0015
3049.00,-0.0015
3048.00,-0.0015
3047.00,-0.0015
3046.00,-0.0015
3045.00,-0.0015
3044.00,-0.0015
3043.00,-0.0015
3042.00,-0.0015
3041.00,-0.0015
3040.00,-0.0015
3039.00,-0.0015
3038.00,-0.0015
3037.00,-0.0015
3036.00,-0.0014
3035.00,-0.0014
3034.00,-0.0014
3033.00,-0.0014
3032.00,-0.0014
3031.00,-0.0014
3030.00,-0.0015
3029.00,-0.0015
3028.00,-0.0015
3027.00,-0.0014
3026.00,-0.0014
3025.00,-0.0014
3024.00,-0.0014
3023.00,-0.0014
3022.00,-0.0015
3021.00,-0.0015
3020.00,-0.0015
3019.00,-0.0015
3018.00,-0.0015
3017.00,-0.0015
3016.00,-0.0014
3015.00,-0.0014
3014.00,-0.0014
3013.00,-0.0014
3012.00,-0.0014
3011.00,-0.0015
3010.00,-0.0015
3009.00,-0.0015
3008.00,-0.0015
3007.00,-0.0015
3006.00,-0.0015
3005.00,-0.0015
3004.00,-0.0015
3003.00,-0.0015
3002.00,-0.0015
3001.00,-0.0015
3000.00,-0.0015
2999.00,-0.0015
2998.00,-0.0015
2997.00,-0.0014
2996.00,-0.0014
2995.00,-0.0014
2994.00,-0.0014
2993.00,-0.0014
2992.00,-0.0014
2991.00,-0.0014
2990.00,-0.0014
2989.00,-0.0014
2988.00,-0.0014
2987.00,-0.0014
2986.00,-0.0014
2985.00,-0.0014
2984.00,-0.0014
2983.00,-0.0014
2982.00,-0.0014
2981.00,-0.0014
2980.00,-0.0014
2979.00,-0.0014
2978.00,-0.0014
2977.00,-0.0014
2976.00,-0.0014
2975.00,-0.0014
2974.00,-0.0014
2973.00,-0.0014
2972.00,-0.0014
2971.00,-0.0014
2970.00,-0.0014
2969.00,-0.0014
2968.00,-0.0014
2967.00,-0.0014
2966.00,-0.0014
2965.00,-0.0014
2964.00,-0.0014
2963.00,-0.0014
2962.00,-0.0014
2961.00,-0.0014
2960.00,-0.0015
2959.00,-0.0015
2958.00,-0.0015
2957.00,-0.0015
2956.00,-0.0015
2955.00,-0.0015
2954.00,-0.0015
2953.00,-0.0015
2952.00,-0.0015
2951.00,-0.0015
2950.00,-0.0014
2949.00,-0.0014
2948.00,-0.0014
2947.00,-0.0014
2946.00,-0.0014
2945.00,-0.0014
2944.00,-0.0014
2943.00,-0.0014
2942.00,-0.0014
2941.00,-0.0014
2940.00,-0.0014
2939.00,-0.0014
2938.00,-0.0014
2937.00,-0.0014
2936.00,-0.0014
2935.00,-0.0014
2934.00,-0.0014
2933.00,-0.0014
2932.00,-0.0014
2931.00,-0.0014
2930.00,-0.0014
2929.00,-0.0014
2928.00,-0.0014
2927.00,-0.0015
2926.00,-0.0015
2925.00,-0.0015
2924.00,-0.0015
2923.00,-0.0015
2922.00,-0.0015
2921.00,-0.0015
2920.00,-0.0015
2919.00,-0.0015
2918.00,-0.0015
2917.00,-0.0015
2916.00,-0.0015
2915.00,-0.0015
2914.00,-0.0015
2913.00,-0.0015
2912.00,-0.0015
2911.00,-0.0015
2910.00,-0.0015
2909.00,-0.0015
2908.00,-0.0015
2907.00,-0.0014
2906.00,-0.0014
2905.00,-0.0014
2904.00,-0.0014
2903.00,-0.0014
2902.00,-0.0014
2901.00,-0.0014
2900.00,-0.0014
2899.00,-0.0014
2898.00,-0.0014
2897.00,-0.0014
2896.00,-0.0014
2895.00,-0.0014
2894.00,-0.0014
2893.00,-0.0014
2892.00,-0.0014
2891.00,-0.0014
2890.00,-0.0014
2889.00,-0.0014
2888.00,-0.0014
2887.00,-0.0014
2886.00,-0.0014
2885.00,-0.0014
2884.00,-0.0014
2883.00,-0.0014
2882.00,-0.0014
2881.00,-0.0014
2880.00,-0.0014
2879.00,-0.0014
2878.00,-0.0014
2877.00,-0.0014
2876.00,-0.0014
2875.00,-0.0014
2874.00,-0.0014
2873.00,-0.0014
2872.00,-0.0014
2871.00,-0.0014
2870.00,-0.0014
2869.00,-0.0014
2868.00,-0.0014
2867.00,-0.0014
2866.00,-0.0014
2865.00,-0.0014
2864.00,-0.0014
2863.00,-0.0014
2862.00,-0.0014
2861.00,-0.0014
2860.00,-0.0014
2859.00,-0.0014
2858.00,-0.0015
2857.00,-0.0015
2856.00,-0.0015
2855.00,-0.0015
2854.00,-0.0015
2853.00,-0.0015
2852.00,-0.0015
2851.00,-0.0015
2850.00,-0.0015
2849.00,-0.0015
2848.00,-0.0015
2847.00,-0.0015
2846.00,-0.0015
2845.00,-0.0015
2844.00,-0.0015
2843.00,-0.0015
2842.00,-0.0015
2841.00,-0.0015
2840.00,-0.0014
2839.00,-0.0014
2838.00,-0.0014
2837.00,-0.0014
2836.00,-0.0014
2835.00,-0.0014
2834.00,-0.0014
2833.00,-0.0014
2832.00,-0.0014
2831.00,-0.0014
2830.00,-0.0014
2829.00,-0.0014
2828.00,-0.0014
2827.00,-0.0014
2826.00,-0.0014
2825.00,-0.0014
2824.00,-0.0014
2823.00,-0.0014
2822.00,-0.0014
2821.00,-0.0014
2820.00,-0.0014
2819.00,-0.0014
2818.00,-0.0014
2817.00,-0.0014
2816.00,-0.0014
2815.00,-0.0014
2814.00,-0.0014
2813.00,-0.0014
2812.00,-0.0014
2811.00,-0.0014
2810.00,-0.0014
2809.00,-0.0014
2808.00,-0.0014
2807.00,-0.0014
2806.00,-0.0014
2805.00,-0.0014
2804.00,-0.0014
2803.00,-0.0014
2802.00,-0.0014
2801.00,-0.0014
2800.00,-0.0014
2799.00,-0.0014
2798.00,-0.0014
2797.00,-0.0014
2796.00,-0.0014
2795.00,-0.0014
2794.00,-0.0014
2793.00,-0.0014
2792.00,-0.0014
2791.00,-0.0014
2790.00,-0.0014
2789.00,-0.0014
2788.00,-0.0014
2787.00,-0.0014
2786.00,-0.0014
2785.00,-0.0014
2784.00,-0.0014
2783.00,-0.0014
2782.00,-0.0014
2781.00,-0.0014
2780.00,-0.0014
2779.00,-0.0014
2778.00,-0.0014
2777.00,-0.0014
2776.00,-0.0014
2775.00,-0.0014
2774.00,-0.0014
2773.00,-0.0014
2772.00,-0.0014
2771.00,-0.0014
2770.00,-0.0014
2769.00,-0.0014
2768.00,-0.0014
2767.00,-0.0014
2766.00,-0.0014
2765.00,-0.0014
2764.00,-0.0014
2763.00,-0.0014
2762.00,-0.0014
2761.00,-0.0014
2760.00,-0.0014
2759.00,-0.0014
2758.00,-0.0014
2757.00,-0.0014
2756.00,-0.0014
2755.00,-0.0014
2754.00,-0.0014
2753.00,-0.0014
2752.00,-0.0014
2751.00,-0.0014
2750.00,-0.0014
2749.00,-0.0014
2748.00,-0.0014
2747.00,-0.0014
2746.00,-0.0014
2745.00,-0.0014
2744.00,-0.0014
2743.00,-0.0014
2742.00,-0.0014
2741.00,-0.0014
2740.00,-0.0014
2739.00,-0.0014
2738.00,-0.0014
2737.00,-0.0014
2736.00,-0.0014
2735.00,-0.0014
2734.00,-0.0014
2733.00,-0.0014
2732.00,-0.0014
2731.00,-0.0014
2730.00,-0.0014
2729.00,-0.0014
2728.00,-0.0014
2727.00,-0.0014
2726.00,-0.0014
2725.00,-0.0014
2724.00,-0.0014
2723.00,-0.0014
2722.00,-0.0014
2721.00,-0.0014
2720.00,-0.0014
2719.00,-0.0014
2718.00,-0.0014
2717.00,-0.0014
2716.00,-0.0014
2715.00,-0.0014
2714.00,-0.0014
2713.00,-0.0014
2712.00,-0.0014
2711.00,-0.0014
2710.00,-0.0014
2709.00,-0.0014
2708.00,-0.0014
2707.00,-0.0014
2706.00,-0.0014
2705.00,-0.0014
2704.00,-0.0014
2703.00,-0.0014
2702.00,-0.0014
2701.00,-0.0014
2700.00,-0.0014
2699.00,-0.0014
2698.00,-0.0014
2697.00,-0.0014
2696.00,-0.0014
2695.00,-0.0014
2694.00,-0.0014
2693.00,-0.0014
2692.00,-0.0014
2691.00,-0.0014
2690.00,-0.0014
2689.00,-0.0014
2688.00,-0.0014
2687.00,-0.0014
2686.00,-0.0014
2685.00,-0.0014
2684.00,-0.0014
2683.00,-0.0014
2682.00,-0.0014
2681.00,-0.0014
2680.00,-0.0014
2679.00,-0.0014
2678.00,-0.0014
2677.00,-0.0014
2676.00,-0.0014
2675.00,-0.0014
2674.00,-0.0014
2673.00,-0.0014
2672.00,-0.0014
2671.00,-0.0014
2670.00,-0.0014
2669.00,-0.0014
2668.00,-0.0014
2667.00,-0.0014
2666.00,-0.0014
2665.00,-0.0014
2664.00,-0.0014
2663.00,-0.0014
2662.00,-0.0014
2661.00,-0.0014
2660.00,-0.0014
2659.00,-0.0014
2658.00,-0.0014
2657.00,-0.0014
2656.00,-0.0014
2655.00,-0.0014
2654.00,-0.0014
2653.00,-0.0014
2652.00,-0.0014
2651.00,-0.0014
2650.00,-0.0014
2649.00,-0.0014
2648.00,-0.0014
2647.00,-0.0014
2646.00,-0.0014
2645.00,-0.0014
2644.00,-0.0014
2643.00,-0.0014
2642.00,-0.0014
2641.00,-0.0014
2640.00,-0.0014
2639.00,-0.0014
2638.00,-0.0014
2637.00,-0.0014
2636.00,-0.0014
2635.00,-0.0014
2634.00,-0.0014
2633.00,-0.0014
2632.00,-0.0014
2631.00,-0.0014
2630.00,-0.0014
2629.00,-0.0014
2628.00,-0.0014
2627.00,-0.0014
2626.00,-0.0014
2625.00,-0.0014
2624.00,-0.0014
2623.00,-0.0014
2622.00,-0.0014
2621.00,-0.0014
2620.00,-0.0014
2619.00,-0.0014
2618.00,-0.0014
2617.00,-0.0014
2616.00,-0.0014
2615.00,-0.0014
2614.00,-0.0014
2613.00,-0.0014
2612.00,-0.0014
2611.00,-0.0014
2610.00,-0.0014
2609.00,-0.0014
2608.00,-0.0014
2607.00,-0.0014
2606.00,-0.0014
2605.00,-0.0014
2604.00,-0.0014
2603.00,-0.0014
2602.00,-0.0014
2601.00,-0.0014
2600.00,-0.0014
2599.00,-0.0014
2598.00,-0.0014
2597.00,-0.0014
2596.00,-0.0014
2595.00,-0.0014
2594.00,-0.0014
2593.00,-0.0014
2592.00,-0.0014
2591.00,-0.0014
2590.00,-0.0014
2589.00,-0.0014
2588.00,-0.0014
2587.00,-0.0014
2586.00,-0.0014
2585.00,-0.0014
2584.00,-0.0014
2583.00,-0.0014
2582.00,-0.0014
2581.00,-0.0014
2580.00,-0.0014
2579.00,-0.0014
2578.00,-0.0014
2577.00,-0.0014
2576.00,-0.0014
2575.00,-0.0014
2574.00,-0.0014
2573.00,-0.0014
2572.00,-0.0014
2571.00,-0.0014
2570.00,-0.0014
2569.00,-0.0014
2568.00,-0.0014
2567.00,-0.0014
2566.00,-0.0014
2565.00,-0.0014
2564.00,-0.0014
2563.00,-0.0014
2562.00,-0.0014
2561.00,-0.0014
2560.00,-0.0014
2559.00,-0.0014
2558.00,-0.0014
2557.00,-0.0014
2556.00,-0.0014
2555.00,-0.0014
2554.00,-0.0014
2553.00,-0.0014
2552.00,-0.0014
2551.00,-0.0014
2550.00,-0.0014
2549.00,-0.0014
2548.00,-0.0014
2547.00,-0.0014
2546.00,-0.0014
2545.00,-0.0014
2544.00,-0.0014
2543.00,-0.0014
2542.00,-0.0014
2541.00,-0.0014
2540.00,-0.0014
2539.00,-0.0014
2538.00,-0.0014
2537.00,-0.0014
2536.00,-0.0014
2535.00,-0.0014
2534.00,-0.0014
2533.00,-0.0014
2532.00,-0.0014
2531.00,-0.0014
2530.00,-0.0014
2529.00,-0.0014
2528.00,-0.0014
2527.00,-0.0014
2526.00,-0.0014
2525.00,-0.0014
2524.00,-0.0014
2523.00,-0.0014
2522.00,-0.0014
2521.00,-0.0014
2520.00,-0.0014
2519.00,-0.0014
2518.00,-0.0014
2517.00,-0.0014
2516.00,-0.0014
2515.00,-0.0014
2514.00,-0.0014
2513.00,-0.0014
2512.00,-0.0014
2511.00,-0.0014
2510.00,-0.0014
2509.00,-0.0014
2508.00,-0.0014
2507.00,-0.0014
2506.00,-0.0014
2505.00,-0.0014
2504.00,-0.0014
2503.00,-0.0014
2502.00,-0.0014
2501.00,-0.0014
2500.00,-0.0014
2499.00,-0.0014
2498.00,-0.0014
2497.00,-0.0014
2496.00,-0.0014
2495.00,-0.0014
2494.00,-0.0014
2493.00,-0.0014
2492.00,-0.0014
2491.00,-0.0014
2490.00,-0.0014
2489.00,-0.0014
2488.00,-0.0014
2487.00,-0.0014
2486.00,-0.0014
2485.00,-0.0014
2484.00,-0.0014
2483.00,-0.0014
2482.00,-0.0014
2481.00,-0.0014
2480.00,-0.0014
2479.00,-0.0014
2478.00,-0.0014
2477.00,-0.0014
2476.00,-0.0014
2475.00,-0.0014
2474.00,-0.0014
2473.00,-0.0014
2472.00,-0.0014
2471.00,-0.0014
2470.00,-0.0014
2469.00,-0.0014
2468.00,-0.0014
2467.00,-0.0014
2466.00,-0.0014
2465.00,-0.0014
2464.00,-0.0014
2463.00,-0.0014
2462.00,-0.0014
2461.00,-0.0014
2460.00,-0.0014
2459.00,-0.0014
2458.00,-0.0014
2457.00,-0.0014
2456.00,-0.0014
2455.00,-0.0014
2454.00,-0.0014
2453.00,-0.0014
2452.00,-0.0014
2451.00,-0.0014
2450.00,-0.0014
2449.00,-0.0014
2448.00,-0.0014
2447.00,-0.0014
2446.00,-0.0014
2445.00,-0.0014
2444.00,-0.0014
2443.00,-0.0014
2442.00,-0.0014
2441.00,-0.0014
2440.00,-0.0014
2439.00,-0.0014
2438.00,-0.0014
2437.00,-0.0014
2436.00,-0.0014
2435.00,-0.0014
2434.00,-0.0014
2433.00,-0.0014
2432.00,-0.0014
2431.00,-0.0014
2430.00,-0.0014
2429.00,-0.0014
2428.00,-0.0014
2427.00,-0.0014
2426.00,-0.0014
2425.00,-0.0014
2424.00,-0.0014
2423.00,-0.0014
2422.00,-0.0014
2421.00,-0.0014
2420.00,-0.0014
2419.00,-0.0014
2418.00,-0.0014
2417.00,-0.0014
2416.00,-0.0014
2415.00,-0.0014
2414.00,-0.0014
2413.00,-0.0014
2412.00,-0.0014
2411.00,-0.0014
2410.00,-0.0014
2409.00,-0.0014
2408.00,-0.0014
2407.00,-0.0014
2406.00,-0.0014
2405.00,-0.0014
2404.00,-0.0014
2403.00,-0.0014
2402.00,-0.0014
2401.00,-0.0014
2400.00,-0.0014
2399.00,-0.0014
2398.00,-0.0014
2397.00,-0.0014
2396.00,-0.0014
2395.00,-0.0014
2394.00,-0.0014
2393.00,-0.0014
2392.00,-0.0014
2391.00,-0.0014
2390.00,-0.0014
2389.00,-0.0014
2388.00,-0.0014
2387.00,-0.0013
2386.00,-0.0013
2385.00,-0.0013
2384.00,-0.0013
2383.00,-0.0013
2382.00,-0.0013
2381.00,-0.0013
2380.00,-0.0014
2379.00,-0.0014
2378.00,-0.0014
2377.00,-0.0014
2376.00,-0.0014
2375.00,-0.0014
2374.00,-0.0013
2373.00,-0.0013
2372.00,-0.0013
2371.00,-0.0013
2370.00,-0.0013
2369.00,-0.0013
2368.00,-0.0013
2367.00,-0.0013
2366.00,-0.0013
2365.00,-0.0012
2364.00,-0.0012
2363.00,-0.0012
2362.00,-0.0012
2361.00,-0.0012
2360.00,-0.0012
2359.00,-0.0012
2358.00,-0.0012
2357.00,-0.0012
2356.00,-0.0011
2355.00,-0.0011
2354.00,-0.0011
2353.00,-0.0012
2352.00,-0.0013
2351.00,-0.0013
2350.00,-0.0013
2349.00,-0.0012
2348.00,-0.0011
2347.00,-0.0010
2346.00,-0.0011
2345.00,-0.0012
2344.00,-0.0012
2343.00,-0.0012
2342.00,-0.0011
2341.00,-0.0011
2340.00,-0.0011
2339.00,-0.0011
2338.00,-0.0012
2337.00,-0.0012
2336.00,-0.0012
2335.00,-0.0012
2334.00,-0.0011
2333.00,-0.0011
2332.00,-0.0012
2331.00,-0.0012
2330.00,-0.0012
2329.00,-0.0012
2328.00,-0.0012
2327.00,-0.0012
2326.00,-0.0011
2325.00,-0.0011
2324.00,-0.0011
2323.00,-0.0012
2322.00,-0.0012
2321.00,-0.0012
2320.00,-0.0012
2319.00,-0.0012
2318.00,-0.0012
2317.00,-0.0012
2316.00,-0.0012
2315.00,-0.0012
2314.00,-0.0012
2313.00,-0.0012
2312.00,-0.0012
2311.00,-0.0012
2310.00,-0.0012
2309.00,-0.0012
2308.00,-0.0012
2307.00,-0.0012
2306.00,-0.0012
2305.00,-0.0012
2304.00,-0.0012
2303.00,-0.0013
2302.00,-0.0013
2301.00,-0.0013
2300.00,-0.0013
2299.00,-0.0013
2298.00,-0.0013
2297.00,-0.0013
2296.00,-0.0013
2295.00,-0.0013
2294.00,-0.0013
2293.00,-0.0013
2292.00,-0.0013
2291.00,-0.0013
2290.00,-0.0013
2289.00,-0.0013
2288.00,-0.0013
2287.00,-0.0013
2286.00,-0.0013
2285.00,-0.0013
2284.00,-0.0013
2283.00,-0.0013
2282.00,-0.0013
2281.00,-0.0013
2280.00,-0.0013
2279.00,-0.0014
2278.00,-0.0014
2277.00,-0.0014
2276.00,-0.0014
2275.00,-0.0014
2274.00,-0.0014
2273.00,-0.0014
2272.00,-0.0014
2271.00,-0.0014
2270.00,-0.0014
2269.00,-0.0014
2268.00,-0.0014
2267.00,-0.0014
2266.00,-0.0014
2265.00,-0.0014
2264.00,-0.0014
2263.00,-0.0014
2262.00,-0.0014
2261.00,-0.0014
2260.00,-0.0014
2259.00,-0.0014
2258.00,-0.0014
2257.00,-0.0014
2256.00,-0.0013
2255.00,-0.0014
2254.00,-0.0013
2253.00,-0.0013
2252.00,-0.0014
2251.00,-0.0014
2250.00,-0.0014
2249.00,-0.0014
2248.00,-0.0013
2247.00,-0.0013
2246.00,-0.0013
2245.00,-0.0013
2244.00,-0.0013
2243.00,-0.0014
2242.00,-0.0013
2241.00,-0.0013
2240.00,-0.0013
2239.00,-0.0013
2238.00,-0.0014
2237.00,-0.0014
2236.00,-0.0014
2235.00,-0.0014
2234.00,-0.0014
2233.00,-0.0014
2232.00,-0.0013
2231.00,-0.0013
2230.00,-0.0013
2229.00,-0.0013
2228.00,-0.0013
2227.00,-0.0013
2226.00,-0.0013
2225.00,-0.0013
2224.00,-0.0014
2223.00,-0.0014
2222.00,-0.0013
2221.00,-0.0013
2220.00,-0.0014
2219.00,-0.0014
2218.00,-0.0014
2217.00,-0.0013
2216.00,-0.0013
2215.00,-0.0013
2214.00,-0.0013
2213.00,-0.0013
2212.00,-0.0013
2211.00,-0.0014
2210.00,-0.0014
2209.00,-0.0014
2208.00,-0.0014
2207.00,-0.0014
2206.00,-0.0014
2205.00,-0.0013
2204.00,-0.0013
2203.00,-0.0013
2202.00,-0.0014
2201.00,-0.0014
2200.00,-0.0014
2199.00,-0.0014
2198.00,-0.0014
2197.00,-0.0013
2196.00,-0.0013
2195.00,-0.0013
2194.00,-0.0014
2193.00,-0.0014
2192.00,-0.0013
2191.00,-0.0013
2190.00,-0.0013
2189.00,-0.0013
2188.00,-0.0013
2187.00,-0.0013
2186.00,-0.0013
2185.00,-0.0013
2184.00,-0.0013
2183.00,-0.0013
2182.00,-0.0013
2181.00,-0.0013
2180.00,-0.0013
2179.00,-0.0013
2178.00,-0.0013
2177.00,-0.0013
2176.00,-0.0013
2175.00,-0.0013
2174.00,-0.0013
2173.00,-0.0013
2172.00,-0.0013
2171.00,-0.0014
2170.00,-0.0013
2169.00,-0.0013
2168.00,-0.0013
2167.00,-0.0013
2166.00,-0.0013
2165.00,-0.0013
2164.00,-0.0013
2163.00,-0.0013
2162.00,-0.0013
2161.00,-0.0013
2160.00,-0.0013
2159.00,-0.0013
2158.00,-0.0013
2157.00,-0.0013
2156.00,-0.0013
2155.00,-0.0013
2154.00,-0.0013
2153.00,-0.0013
2152.00,-0.0013
2151.00,-0.0013
2150.00,-0.0013
2149.00,-0.0013
2148.00,-0.0013
2147.00,-0.0014
2146.00,-0.0014
2145.00,-0.0014
2144.00,-0.0014
2143.00,-0.0014
2142.00,-0.0014
2141.00,-0.0014
2140.00,-0.0013
2139.00,-0.0013
2138.00,-0.0013
2137.00,-0.0013
2136.00,-0.0013
2135.00,-0.0013
2134.00,-0.0013
2133.00,-0.0013
2132.00,-0.0013
2131.00,-0.0013
2130.00,-0.0013
2129.00,-0.0013
2128.00,-0.0013
2127.00,-0.0013
2126.00,-0.0013
2125.00,-0.0013
2124.00,-0.0013
2123.00,-0.0013
2122.00,-0.0013
2121.00,-0.0013
2120.00,-0.0013
2119.00,-0.0013
2118.00,-0.0013
2117.00,-0.0013
2116.00,-0.0013
2115.00,-0.0013
2114.00,-0.0013
2113.00,-0.0013
2112.00,-0.0013
2111.00,-0.0013
2110.00,-0.0013
2109.00,-0.0014
2108.00,-0.0014
2107.00,-0.0014
2106.00,-0.0013
2105.00,-0.0014
2104.00,-0.0014
2103.00,-0.0014
2102.00,-0.0014
2101.00,-0.0014
2100.00,-0.0014
2099.00,-0.0014
2098.00,-0.0014
2097.00,-0.0014
2096.00,-0.0013
2095.00,-0.0013
2094.00,-0.0013
2093.00,-0.0013
2092.00,-0.0013
2091.00,-0.0013
2090.00,-0.0013
2089.00,-0.0013
2088.00,-0.0013
2087.00,-0.0013
2086.00,-0.0013
2085.00,-0.0013
2084.00,-0.0013
2083.00,-0.0013
2082.00,-0.0013
2081.00,-0.0013
2080.00,-0.0013
2079.00,-0.0013
2078.00,-0.0013
2077.00,-0.0013
2076.00,-0.0013
2075.00,-0.0013
2074.00,-0.0013
2073.00,-0.0013
2072.00,-0.0013
2071.00,-0.0013
2070.00,-0.0013
2069.00,-0.0013
2068.00,-0.0013
2067.00,-0.0014
2066.00,-0.0014
2065.00,-0.0014
2064.00,-0.0014
2063.00,-0.0014
2062.00,-0.0013
2061.00,-0.0013
2060.00,-0.0013
2059.00,-0.0013
2058.00,-0.0013
2057.00,-0.0013
2056.00,-0.0013
2055.00,-0.0013
2054.00,-0.0013
2053.00,-0.0013
2052.00,-0.0013
2051.00,-0.0013
2050.00,-0.0013
2049.00,-0.0013
2048.00,-0.0013
2047.00,-0.0013
2046.00,-0.0013
2045.00,-0.0013
2044.00,-0.0013
2043.00,-0.0014
2042.00,-0.0014
2041.00,-0.0014
2040.00,-0.0014
2039.00,-0.0013
2038.00,-0.0013
2037.00,-0.0013
2036.00,-0.0013
2035.00,-0.0013
2034.00,-0.0013
2033.00,-0.0013
2032.00,-0.0013
2031.00,-0.0013
2030.00,-0.0013
2029.00,-0.0013
2028.00,-0.0013
2027.00,-0.0013
2026.00,-0.0013
2025.00,-0.0013
2024.00,-0.0013
2023.00,-0.0013
2022.00,-0.0013
2021.00,-0.0013
2020.00,-0.0013
2019.00,-0.0013
2018.00,-0.0013
2017.00,-0.0013
2016.00,-0.0013
2015.00,-0.0013
2014.00,-0.0013
2013.00,-0.0013
2012.00,-0.0013
2011.00,-0.0013
2010.00,-0.0013
2009.00,-0.0013
2008.00,-0.0013
2007.00,-0.0013
2006.00,-0.0013
2005.00,-0.0013
2004.00,-0.0013
2003.00,-0.0013
2002.00,-0.0013
2001.00,-0.0013
2000.00,-0.0013
1999.00,-0.0013
1998.00,-0.0013
1997.00,-0.0013
1996.00,-0.0013
1995.00,-0.0013
1994.00,-0.0013
1993.00,-0.0013
1992.00,-0.0013
1991.00,-0.0013
1990.00,-0.0013
1989.00,-0.0013
1988.00,-0.0013
1987.00,-0.0013
1986.00,-0.0013
1985.00,-0.0013
1984.00,-0.0014
1983.00,-0.0014
1982.00,-0.0013
1981.00,-0.0013
1980.00,-0.0013
1979.00,-0.0013
1978.00,-0.0013
1977.00,-0.0013
1976.00,-0.0013
1975.00,-0.0013
1974.00,-0.0013
1973.00,-0.0013
1972.00,-0.0013
1971.00,-0.0013
1970.00,-0.0013
1969.00,-0.0013
1968.00,-0.0014
1967.00,-0.0014
1966.00,-0.0013
1965.00,-0.0013
1964.00,-0.0013
1963.00,-0.0013
1962.00,-0.0013
1961.00,-0.0013
1960.00,-0.0013
1959.00,-0.0013
1958.00,-0.0013
1957.00,-0.0013
1956.00,-0.0013
1955.00,-0.0013
1954.00,-0.0013
1953.00,-0.0013
1952.00,-0.0013
1951.00,-0.0013
1950.00,-0.0013
1949.00,-0.0013
1948.00,-0.0013
1947.00,-0.0013
1946.00,-0.0013
1945.00,-0.0013
1944.00,-0.0013
1943.00,-0.0013
1942.00,-0.0013
1941.00,-0.0013
1940.00,-0.0013
1939.00,-0.0013
1938.00,-0.0013
1937.00,-0.0013
1936.00,-0.0013
1935.00,-0.0013
1934.00,-0.0013
1933.00,-0.0013
1932.00,-0.0013
1931.00,-0.0013
1930.00,-0.0013
1929.00,-0.0013
1928.00,-0.0013
1927.00,-0.0013
1926.00,-0.0013
1925.00,-0.0013
1924.00,-0.0014
1923.00,-0.0014
1922.00,-0.0013
1921.00,-0.0013
1920.00,-0.0013
1919.00,-0.0013
1918.00,-0.0013
1917.00,-0.0013
1916.00,-0.0013
1915.00,-0.0013
1914.00,-0.0013
1913.00,-0.0013
1912.00,-0.0013
1911.00,-0.0013
1910.00,-0.0013
1909.00,-0.0014
1908.00,-0.0014
1907.00,-0.0013
1906.00,-0.0013
1905.00,-0.0013
1904.00,-0.0013
1903.00,-0.0013
1902.00,-0.0013
1901.00,-0.0013
1900.00,-0.0013
1899.00,-0.0013
1898.00,-0.0013
1897.00,-0.0013
1896.00,-0.0013
1895.00,-0.0013
1894.00,-0.0013
1893.00,-0.0013
1892.00,-0.0013
1891.00,-0.0013
1890.00,-0.0013
1889.00,-0.0014
1888.00,-0.0013
1887.00,-0.0013
1886.00,-0.0013
1885.00,-0.0013
1884.00,-0.0013
1883.00,-0.0013
1882.00,-0.0013
1881.00,-0.0013
1880.00,-0.0013
1879.00,-0.0013
1878.00,-0.0013
1877.00,-0.0013
1876.00,-0.0013
1875.00,-0.0013
1874.00,-0.0013
1873.00,-0.0013
1872.00,-0.0013
1871.00,-0.0013
1870.00,-0.0013
1869.00,-0.0013
1868.00,-0.0013
1867.00,-0.0013
1866.00,-0.0013
1865.00,-0.0013
1864.00,-0.0013
1863.00,-0.0013
1862.00,-0.0013
1861.00,-0.0013
1860.00,-0.0013
1859.00,-0.0013
1858.00,-0.0013
1857.00,-0.0013
1856.00,-0.0013
1855.00,-0.0013
1854.00,-0.0013
1853.00,-0.0013
1852.00,-0.0013
1851.00,-0.0013
1850.00,-0.0013
1849.00,-0.0013
1848.00,-0.0013
1847.00,-0.0013
1846.00,-0.0013
1845.00,-0.0013
1844.00,-0.0013
1843.00,-0.0013
1842.00,-0.0013
1841.00,-0.0012
1840.00,-0.0013
1839.00,-0.0013
1838.00,-0.0013
1837.00,-0.0013
1836.00,-0.0013
1835.00,-0.0013
1834.00,-0.0013
1833.00,-0.0013
1832.00,-0.0013
1831.00,-0.0013
1830.00,-0.0014
1829.00,-0.0013
1828.00,-0.0013
1827.00,-0.0013
1826.00,-0.0012
1825.00,-0.0013
1824.00,-0.0013
1823.00,-0.0013
1822.00,-0.0013
1821.00,-0.0013
1820.00,-0.0013
1819.00,-0.0013
1818.00,-0.0013
1817.00,-0.0013
1816.00,-0.0013
1815.00,-0.0013
1814.00,-0.0013
1813.00,-0.0013
1812.00,-0.0013
1811.00,-0.0013
1810.00,-0.0013
1809.00,-0.0013
1808.00,-0.0013
1807.00,-0.0013
1806.00,-0.0013
1805.00,-0.0013
1804.00,-0.0013
1803.00,-0.0013
1802.00,-0.0013
1801.00,-0.0013
1800.00,-0.0013
1799.00,-0.0013
1798.00,-0.0013
1797.00,-0.0013
1796.00,-0.0013
1795.00,-0.0013
1794.00,-0.0013
1793.00,-0.0012
1792.00,-0.0013
1791.00,-0.0013
1790.00,-0.0012
1789.00,-0.0012
1788.00,-0.0012
1787.00,-0.0012
1786.00,-0.0012
1785.00,-0.0012
1784.00,-0.0012
1783.00,-0.0013
1782.00,-0.0013
1781.00,-0.0013
1780.00,-0.0013
1779.00,-0.0013
1778.00,-0.0012
1777.00,-0.0012
1776.00,-0.0013
1775.00,-0.0013
1774.00,-0.0012
1773.00,-0.0012
1772.00,-0.0012
1771.00,-0.0012
1770.00,-0.0012
1769.00,-0.0011
1768.00,-0.0011
1767.00,-0.0012
1766.00,-0.0012
1765.00,-0.0012
1764.00,-0.0012
1763.00,-0.0013
1762.00,-0.0013
1761.00,-0.0013
1760.00,-0.0013
1759.00,-0.0012
1758.00,-0.0012
1757.00,-0.0012
1756.00,-0.0012
1755.00,-0.0012
1754.00,-0.0011
1753.00,-0.0010
1752.00,-0.0009
1751.00,-0.0009
1750.00,-0.0010
1749.00,-0.0011
1748.00,-0.0011
1747.00,-0.0011
1746.00,-0.0012
1745.00,-0.0012
1744.00,-0.0012
1743.00,-0.0012
1742.00,-0.0013
1741.00,-0.0013
1740.00,-0.0012
1739.00,-0.0013
1738.00,-0.0013
1737.00,-0.0012
1736.00,-0.0011
1735.00,-0.0010
1734.00,-0.0010
1733.00,-0.0010
1732.00,-0.0011
1731.00,-0.0011
1730.00,-0.0012
1729.00,-0.0012
1728.00,-0.0012
1727.00,-0.0012
1726.00,-0.0012
1725.00,-0.0013
1724.00,-0.0013
1723.00,-0.0013
1722.00,-0.0012
1721.00,-0.0012
1720.00,-0.0012
1719.00,-0.0012
1718.00,-0.0011
1717.00,-0.0011
1716.00,-0.0011
1715.00,-0.0011
1714.00,-0.0011
1713.00,-0.0011
1712.00,-0.0012
1711.00,-0.0012
1710.00,-0.0012
1709.00,-0.0012
1708.00,-0.0013
1707.00,-0.0013
1706.00,-0.0013
1705.00,-0.0013
1704.00,-0.0013
1703.00,-0.0013
1702.00,-0.0012
1701.00,-0.0012
1700.00,-0.0012
1699.00,-0.0012
1698.00,-0.0011
1697.00,-0.0010
1696.00,-0.0011
1695.00,-0.0011
1694.00,-0.0012
1693.00,-0.0012
1692.00,-0.0011
1691.00,-0.0011
1690.00,-0.0012
1689.00,-0.0012
1688.00,-0.0012
1687.00,-0.0011
1686.00,-0.0011
1685.00,-0.0011
1684.00,-0.0011
1683.00,-0.0012
1682.00,-0.0012
1681.00,-0.0012
1680.00,-0.0012
1679.00,-0.0012
1678.00,-0.0012
1677.00,-0.0012
1676.00,-0.0012
1675.00,-0.0012
1674.00,-0.0012
1673.00,-0.0012
1672.00,-0.0011
1671.00,-0.0012
1670.00,-0.0012
1669.00,-0.0012
1668.00,-0.0012
1667.00,-0.0012
1666.00,-0.0012
1665.00,-0.0012
1664.00,-0.0012
1663.00,-0.0012
1662.00,-0.0012
1661.00,-0.0012
1660.00,-0.0012
1659.00,-0.0012
1658.00,-0.0012
1657.00,-0.0013
1656.00,-0.0013
1655.00,-0.0013
1654.00,-0.0014
1653.00,-0.0014
1652.00,-0.0013
1651.00,-0.0013
1650.00,-0.0012
1649.00,-0.0012
1648.00,-0.0011
1647.00,-0.0011
1646.00,-0.0011
1645.00,-0.0011
1644.00,-0.0011
1643.00,-0.0011
1642.00,-0.0012
1641.00,-0.0012
1640.00,-0.0012
1639.00,-0.0012
1638.00,-0.0012
1637.00,-0.0012
1636.00,-0.0012
1635.00,-0.0012
1634.00,-0.0012
1633.00,-0.0012
1632.00,-0.0012
1631.00,-0.0012
1630.00,-0.0012
1629.00,-0.0012
1628.00,-0.0013
1627.00,-0.0013
1626.00,-0.0013
1625.00,-0.0013
1624.00,-0.0013
1623.00,-0.0013
1622.00,-0.0013
1621.00,-0.0013
1620.00,-0.0013
1619.00,-0.0013
1618.00,-0.0013
1617.00,-0.0013
1616.00,-0.0013
1615.00,-0.0013
1614.00,-0.0013
1613.00,-0.0013
1612.00,-0.0013
1611.00,-0.0013
1610.00,-0.0013
1609.00,-0.0013
1608.00,-0.0013
1607.00,-0.0013
1606.00,-0.0013
1605.00,-0.0013
1604.00,-0.0013
1603.00,-0.0013
1602.00,-0.0013
1601.00,-0.0013
1600.00,-0.0013
1599.00,-0.0013
1598.00,-0.0013
1597.00,-0.0013
1596.00,-0.0013
1595.00,-0.0013
1594.00,-0.0013
1593.00,-0.0013
1592.00,-0.0013
1591.00,-0.0013
1590.00,-0.0013
1589.00,-0.0013
1588.00,-0.0013
1587.00,-0.0013
1586.00,-0.0013
1585.00,-0.0013
1584.00,-0.0013
1583.00,-0.0013
1582.00,-0.0013
1581.00,-0.0013
1580.00,-0.0013
1579.00,-0.0014
1578.00,-0.0014
1577.00,-0.0014
1576.00,-0.0013
1575.00,-0.0013
1574.00,-0.0013
1573.00,-0.0013
1572.00,-0.0013
1571.00,-0.0013
1570.00,-0.0013
1569.00,-0.0013
1568.00,-0.0012
1567.00,-0.0012
1566.00,-0.0012
1565.00,-0.0012
1564.00,-0.0012
1563.00,-0.0013
1562.00,-0.0013
1561.00,-0.0013
1560.00,-0.0012
1559.00,-0.0011
1558.00,-0.0011
1557.00,-0.0011
1556.00,-0.0011
1555.00,-0.0010
1554.00,-0.0010
1553.00,-0.0011
1552.00,-0.0011
1551.00,-0.0011
1550.00,-0.0011
1549.00,-0.0011
1548.00,-0.0011
1547.00,-0.0010
1546.00,-0.0010
1545.00,-0.0011
1544.00,-0.0011
1543.00,-0.0012
1542.00,-0.0011
1541.00,-0.0011
1540.00,-0.0011
1539.00,-0.0011
1538.00,-0.0011
1537.00,-0.0011
1536.00,-0.0011
1535.00,-0.0011
1534.00,-0.0011
1533.00,-0.0011
1532.00,-0.0011
1531.00,-0.0011
1530.00,-0.0011
1529.00,-0.0011
1528.00,-0.0011
1527.00,-0.0011
1526.00,-0.0011
1525.00,-0.0011
1524.00,-0.0011
1523.00,-0.0011
1522.00,-0.0011
1521.00,-0.0011
1520.00,-0.0011
1519.00,-0.0011
1518.00,-0.0011
1517.00,-0.0011
1516.00,-0.0011
1515.00,-0.0011
1514.00,-0.0010
1513.00,-0.0010
1512.00,-0.0010
1511.00,-0.0011
1510.00,-0.0011
1509.00,-0.0011
1508.00,-0.0011
1507.00,-0.0011
1506.00,-0.0011
1505.00,-0.0011
1504.00,-0.0011
1503.00,-0.0011
1502.00,-0.0011
1501.00,-0.0012
1500.00,-0.0012
1499.00,-0.0012
1498.00,-0.0012
1497.00,-0.0012
1496.00,-0.0012
1495.00,-0.0012
1494.00,-0.0012
1493.00,-0.0012
1492.00,-0.0012
1491.00,-0.0012
1490.00,-0.0012
1489.00,-0.0012
1488.00,-0.0012
1487.00,-0.0012
1486.00,-0.0012
1485.00,-0.0012
1484.00,-0.0012
1483.00,-0.0013
1482.00,-0.0013
1481.00,-0.0013
1480.00,-0.0012
1479.00,-0.0012
1478.00,-0.0012
1477.00,-0.0012
1476.00,-0.0012
1475.00,-0.0011
1474.00,-0.0011
1473.00,-0.0010
1472.00,-0.0011
1471.00,-0.0011
1470.00,-0.0012
1469.00,-0.0012
1468.00,-0.0012
1467.00,-0.0013
1466.00,-0.0013
1465.00,-0.0012
1464.00,-0.0012
1463.00,-0.0012
1462.00,-0.0012
1461.00,-0.0012
1460.00,-0.0012
1459.00,-0.0012
1458.00,-0.0012
1457.00,-0.0012
1456.00,-0.0011
1455.00,-0.0011
1454.00,-0.0011
1453.00,-0.0012
1452.00,-0.0012
1451.00,-0.0012
1450.00,-0.0012
1449.00,-0.0012
1448.00,-0.0012
1447.00,-0.0013
1446.00,-0.0013
1445.00,-0.0013
1444.00,-0.0013
1443.00,-0.0013
1442.00,-0.0013
1441.00,-0.0013
1440.00,-0.0013
1439.00,-0.0013
1438.00,-0.0013
1437.00,-0.0012
1436.00,-0.0012
1435.00,-0.0012
1434.00,-0.0012
1433.00,-0.0012
1432.00,-0.0012
1431.00,-0.0013
1430.00,-0.0013
1429.00,-0.0013
1428.00,-0.0012
1427.00,-0.0012
1426.00,-0.0012
1425.00,-0.0012
1424.00,-0.0012
1423.00,-0.0012
1422.00,-0.0012
1421.00,-0.0012
1420.00,-0.0012
1419.00,-0.0012
1418.00,-0.0012
1417.00,-0.0012
1416.00,-0.0012
1415.00,-0.0012
1414.00,-0.0013
1413.00,-0.0013
1412.00,-0.0013
1411.00,-0.0013
1410.00,-0.0013
1409.00,-0.0013
1408.00,-0.0013
1407.00,-0.0013
1406.00,-0.0013
1405.00,-0.0013
1404.00,-0.0013
1403.00,-0.0013
1402.00,-0.0013
1401.00,-0.0012
1400.00,-0.0012
1399.00,-0.0012
1398.00,-0.0012
1397.00,-0.0012
1396.00,-0.0012
1395.00,-0.0012
1394.00,-0.0013
1393.00,-0.0013
1392.00,-0.0012
1391.00,-0.0012
1390.00,-0.0013
1389.00,-0.0013
1388.00,-0.0013
1387.00,-0.0013
1386.00,-0.0013
1385.00,-0.0013
1384.00,-0.0013
1383.00,-0.0013
1382.00,-0.0013
1381.00,-0.0013
1380.00,-0.0013
1379.00,-0.0013
1378.00,-0.0013
1377.00,-0.0013
1376.00,-0.0013
1375.00,-0.0013
1374.00,-0.0013
1373.00,-0.0013
1372.00,-0.0013
1371.00,-0.0013
1370.00,-0.0013
1369.00,-0.0013
1368.00,-0.0013
1367.00,-0.0013
1366.00,-0.0013
1365.00,-0.0013
1364.00,-0.0013
1363.00,-0.0013
1362.00,-0.0013
1361.00,-0.0013
1360.00,-0.0013
1359.00,-0.0013
1358.00,-0.0013
1357.00,-0.0013
1356.00,-0.0013
1355.00,-0.0013
1354.00,-0.0013
1353.00,-0.0013
1352.00,-0.0013
1351.00,-0.0013
1350.00,-0.0013
1349.00,-0.0013
1348.00,-0.0013
1347.00,-0.0013
1346.00,-0.0013
1345.00,-0.0013
1344.00,-0.0013
1343.00,-0.0013
1342.00,-0.0013
1341.00,-0.0013
1340.00,-0.0013
1339.00,-0.0013
1338.00,-0.0013
1337.00,-0.0013
1336.00,-0.0013
1335.00,-0.0013
1334.00,-0.0013
1333.00,-0.0013
1332.00,-0.0013
1331.00,-0.0013
1330.00,-0.0013
1329.00,-0.0013
1328.00,-0.0013
1327.00,-0.0013
1326.00,-0.0013
1325.00,-0.0013
1324.00,-0.0013
1323.00,-0.0013
1322.00,-0.0013
1321.00,-0.0013
1320.00,-0.0013
1319.00,-0.0013
1318.00,-0.0013
1317.00,-0.0013
1316.00,-0.0013
1315.00,-0.0013
1314.00,-0.0013
1313.00,-0.0013
1312.00,-0.0013
1311.00,-0.0013
1310.00,-0.0013
1309.00,-0.0014
1308.00,-0.0014
1307.00,-0.0014
1306.00,-0.0014
1305.00,-0.0013
1304.00,-0.0013
1303.00,-0.0013
1302.00,-0.0013
1301.00,-0.0014
1300.00,-0.0013
1299.00,-0.0013
1298.00,-0.0013
1297.00,-0.0013
1296.00,-0.0013
1295.00,-0.0013
1294.00,-0.0014
1293.00,-0.0014
1292.00,-0.0014
1291.00,-0.0014
1290.00,-0.0014
1289.00,-0.0014
1288.00,-0.0014
1287.00,-0.0014
1286.00,-0.0014
1285.00,-0.0013
1284.00,-0.0013
1283.00,-0.0013
1282.00,-0.0014
1281.00,-0.0014
1280.00,-0.0014
1279.00,-0.0013
1278.00,-0.0013
1277.00,-0.0013
1276.00,-0.0013
1275.00,-0.0013
1274.00,-0.0013
1273.00,-0.0013
1272.00,-0.0013
1271.00,-0.0013
1270.00,-0.0014
1269.00,-0.0014
1268.00,-0.0014
1267.00,-0.0014
1266.00,-0.0014
1265.00,-0.0014
1264.00,-0.0014
1263.00,-0.0014
1262.00,-0.0014
1261.00,-0.0014
1260.00,-0.0014
1259.00,-0.0014
1258.00,-0.0014
1257.00,-0.0014
1256.00,-0.0014
1255.00,-0.0014
1254.00,-0.0015
1253.00,-0.0015
1252.00,-0.0014
1251.00,-0.0014
1250.00,-0.0014
1249.00,-0.0015
1248.00,-0.0015
1247.00,-0.0015
1246.00,-0.0015
1245.00,-0.0014
1244.00,-0.0014
1243.00,-0.0014
1242.00,-0.0014
1241.00,-0.0014
1240.00,-0.0014
1239.00,-0.0014
1238.00,-0.0014
1237.00,-0.0014
1236.00,-0.0014
1235.00,-0.0014
1234.00,-0.0014
1233.00,-0.0014
1232.00,-0.0014
1231.00,-0.0014
1230.00,-0.0014
1229.00,-0.0014
1228.00,-0.0014
1227.00,-0.0014
1226.00,-0.0014
1225.00,-0.0014
1224.00,-0.0014
1223.00,-0.0013
1222.00,-0.0014
1221.00,-0.0014
1220.00,-0.0014
1219.00,-0.0013
1218.00,-0.0014
1217.00,-0.0014
1216.00,-0.0014
1215.00,-0.0014
1214.00,-0.0014
1213.00,-0.0014
1212.00,-0.0014
1211.00,-0.0014
1210.00,-0.0014
1209.00,-0.0014
1208.00,-0.0014
1207.00,-0.0014
1206.00,-0.0014
1205.00,-0.0014
1204.00,-0.0014
1203.00,-0.0014
1202.00,-0.0014
1201.00,-0.0014
1200.00,-0.0014
1199.00,-0.0014
1198.00,-0.0014
1197.00,-0.0014
1196.00,-0.0014
1195.00,-0.0014
1194.00,-0.0014
1193.00,-0.0014
1192.00,-0.0014
1191.00,-0.0014
1190.00,-0.0014
1189.00,-0.0014
1188.00,-0.0014
1187.00,-0.0014
1186.00,-0.0014
1185.00,-0.0014
1184.00,-0.0014
1183.00,-0.0014
1182.00,-0.0014
1181.00,-0.0014
1180.00,-0.0014
1179.00,-0.0014
1178.00,-0.0014
1177.00,-0.0014
1176.00,-0.0014
1175.00,-0.0014
1174.00,-0.0014
1173.00,-0.0014
1172.00,-0.0014
1171.00,-0.0014
1170.00,-0.0014
1169.00,-0.0014
1168.00,-0.0014
1167.00,-0.0014
1166.00,-0.0014
1165.00,-0.0014
1164.00,-0.0014
1163.00,-0.0014
1162.00,-0.0014
1161.00,-0.0014
1160.00,-0.0014
1159.00,-0.0014
1158.00,-0.0014
1157.00,-0.0014
1156.00,-0.0014
1155.00,-0.0014
1154.00,-0.0014
1153.00,-0.0015
1152.00,-0.0015
1151.00,-0.0015
1150.00,-0.0014
1149.00,-0.0014
1148.00,-0.0014
1147.00,-0.0014
1146.00,-0.0014
1145.00,-0.0014
1144.00,-0.0014
1143.00,-0.0014
1142.00,-0.0014
1141.00,-0.0014
1140.00,-0.0014
1139.00,-0.0014
1138.00,-0.0014
1137.00,-0.0014
1136.00,-0.0014
1135.00,-0.0014
1134.00,-0.0014
1133.00,-0.0014
1132.00,-0.0014
1131.00,-0.0015
1130.00,-0.0015
1129.00,-0.0015
1128.00,-0.0015
1127.00,-0.0014
1126.00,-0.0014
1125.00,-0.0014
1124.00,-0.0014
1123.00,-0.0014
1122.00,-0.0014
1121.00,-0.0015
1120.00,-0.0015
1119.00,-0.0015
1118.00,-0.0015
1117.00,-0.0015
1116.00,-0.0015
1115.00,-0.0015
1114.00,-0.0015
1113.00,-0.0015
1112.00,-0.0015
1111.00,-0.0015
1110.00,-0.0015
1109.00,-0.0015
1108.00,-0.0014
1107.00,-0.0014
1106.00,-0.0014
1105.00,-0.0015
1104.00,-0.0015
1103.00,-0.0015
1102.00,-0.0014
1101.00,-0.0014
1100.00,-0.0014
1099.00,-0.0014
1098.00,-0.0014
1097.00,-0.0014
1096.00,-0.0014
1095.00,-0.0014
1094.00,-0.0014
1093.00,-0.0014
1092.00,-0.0014
1091.00,-0.0014
1090.00,-0.0014
1089.00,-0.0014
1088.00,-0.0014
1087.00,-0.0014
1086.00,-0.0014
1085.00,-0.0015
1084.00,-0.0015
1083.00,-0.0015
1082.00,-0.0015
1081.00,-0.0015
1080.00,-0.0015
1079.00,-0.0015
1078.00,-0.0015
1077.00,-0.0015
1076.00,-0.0014
1075.00,-0.0014
1074.00,-0.0014
1073.00,-0.0014
1072.00,-0.0014
1071.00,-0.0014
1070.00,-0.0014
1069.00,-0.0014
1068.00,-0.0014
1067.00,-0.0014
1066.00,-0.0014
1065.00,-0.0014
1064.00,-0.0014
1063.00,-0.0014
1062.00,-0.0014
1061.00,-0.0014
1060.00,-0.0014
1059.00,-0.0014
1058.00,-0.0014
1057.00,-0.0014
1056.00,-0.0014
1055.00,-0.0014
1054.00,-0.0014
1053.00,-0.0014
1052.00,-0.0014
1051.00,-0.0014
1050.00,-0.0014
1049.00,-0.0014
1048.00,-0.0014
1047.00,-0.0014
1046.00,-0.0014
1045.00,-0.0014
1044.00,-0.0014
1043.00,-0.0014
1042.00,-0.0014
1041.00,-0.0013
1040.00,-0.0013
1039.00,-0.0013
1038.00,-0.0013
1037.00,-0.0013
1036.00,-0.0013
1035.00,-0.0014
1034.00,-0.0014
1033.00,-0.0014
1032.00,-0.0014
1031.00,-0.0014
1030.00,-0.0014
1029.00,-0.0013
1028.00,-0.0013
1027.00,-0.0013
1026.00,-0.0013
1025.00,-0.0013
1024.00,-0.0013
1023.00,-0.0013
1022.00,-0.0013
1021.00,-0.0013
1020.00,-0.0013
1019.00,-0.0013
1018.00,-0.0013
1017.00,-0.0013
1016.00,-0.0013
1015.00,-0.0013
1014.00,-0.0013
1013.00,-0.0013
1012.00,-0.0013
1011.00,-0.0013
1010.00,-0.0013
1009.00,-0.0013
1008.00,-0.0013
1007.00,-0.0013
1006.00,-0.0013
1005.00,-0.0013
1004.00,-0.0013
1003.00,-0.0013
1002.00,-0.0013
1001.00,-0.0013
1000.00,-0.0013
999.00,-0.0013
998.00,-0.0013
997.00,-0.0013
996.00,-0.0013
995.00,-0.0013
994.00,-0.0013
993.00,-0.0013
992.00,-0.0013
991.00,-0.0013
990.00,-0.0013
989.00,-0.0013
988.00,-0.0013
987.00,-0.0013
986.00,-0.0013
985.00,-0.0013
984.00,-0.0013
983.00,-0.0013
982.00,-0.0013
981.00,-0.0013
980.00,-0.0013
979.00,-0.0013
978.00,-0.0013
977.00,-0.0013
976.00,-0.0013
975.00,-0.0013
974.00,-0.0013
973.00,-0.0013
972.00,-0.0013
971.00,-0.0013
970.00,-0.0013
969.00,-0.0013
968.00,-0.0013
967.00,-0.0013
966.00,-0.0013
965.00,-0.0013
964.00,-0.0013
963.00,-0.0013
962.00,-0.0013
961.00,-0.0014
960.00,-0.0014
959.00,-0.0014
958.00,-0.0014
957.00,-0.0014
956.00,-0.0013
955.00,-0.0013
954.00,-0.0013
953.00,-0.0013
952.00,-0.0013
951.00,-0.0013
950.00,-0.0013
949.00,-0.0013
948.00,-0.0013
947.00,-0.0013
946.00,-0.0014
945.00,-0.0014
944.00,-0.0014
943.00,-0.0014
942.00,-0.0014
941.00,-0.0014
940.00,-0.0014
939.00,-0.0014
938.00,-0.0014
937.00,-0.0014
936.00,-0.0014
935.00,-0.0014
934.00,-0.0014
933.00,-0.0014
932.00,-0.0014
931.00,-0.0014
930.00,-0.0014
929.00,-0.0014
928.00,-0.0014
927.00,-0.0014
926.00,-0.0014
925.00,-0.0014
924.00,-0.0014
923.00,-0.0014
922.00,-0.0014
921.00,-0.0014
920.00,-0.0014
919.00,-0.0014
918.00,-0.0014
917.00,-0.0014
916.00,-0.0014
915.00,-0.0014
914.00,-0.0014
913.00,-0.0014
912.00,-0.0014
911.00,-0.0014
910.00,-0.0014
909.00,-0.0014
908.00,-0.0014
907.00,-0.0014
906.00,-0.0014
905.00,-0.0014
904.00,-0.0014
903.00,-0.0014
902.00,-0.0014
901.00,-0.0014
900.00,-0.0014
899.00,-0.0014
898.00,-0.0014
897.00,-0.0014
896.00,-0.0014
895.00,-0.0014
894.00,-0.0014
893.00,-0.0014
892.00,-0.0014
891.00,-0.0014
890.00,-0.0014
889.00,-0.0014
888.00,-0.0014
887.00,-0.0014
886.00,-0.0014
885.00,-0.0014
884.00,-0.0013
883.00,-0.0013
882.00,-0.0014
881.00,-0.0014
880.00,-0.0013
879.00,-0.0013
878.00,-0.0013
877.00,-0.0013
876.00,-0.0014
875.00,-0.0013
874.00,-0.0013
873.00,-0.0013
872.00,-0.0013
871.00,-0.0014
870.00,-0.0014
869.00,-0.0013
868.00,-0.0013
867.00,-0.0013
866.00,-0.0013
865.00,-0.0013
864.00,-0.0013
863.00,-0.0013
862.00,-0.0013
861.00,-0.0013
860.00,-0.0013
859.00,-0.0013
858.00,-0.0013
857.00,-0.0013
856.00,-0.0013
855.00,-0.0013
854.00,-0.0013
853.00,-0.0013
852.00,-0.0013
851.00,-0.0013
850.00,-0.0013
849.00,-0.0013
848.00,-0.0013
847.00,-0.0013
846.00,-0.0013
845.00,-0.0013
844.00,-0.0013
843.00,-0.0013
842.00,-0.0013
841.00,-0.0013
840.00,-0.0013
839.00,-0.0013
838.00,-0.0013
837.00,-0.0013
836.00,-0.0013
835.00,-0.0013
834.00,-0.0014
833.00,-0.0013
832.00,-0.0013
831.00,-0.0013
830.00,-0.0013
829.00,-0.0013
828.00,-0.0014
827.00,-0.0013
826.00,-0.0013
825.00,-0.0013
824.00,-0.0013
823.00,-0.0013
822.00,-0.0013
821.00,-0.0013
820.00,-0.0013
819.00,-0.0013
818.00,-0.0013
817.00,-0.0013
816.00,-0.0013
815.00,-0.0013
814.00,-0.0013
813.00,-0.0013
812.00,-0.0013
811.00,-0.0013
810.00,-0.0013
809.00,-0.0013
808.00,-0.0013
807.00,-0.0013
806.00,-0.0014
805.00,-0.0014
804.00,-0.0014
803.00,-0.0013
802.00,-0.0013
801.00,-0.0013
800.00,-0.0013
799.00,-0.0013
798.00,-0.0013
797.00,-0.0013
796.00,-0.0013
795.00,-0.0013
794.00,-0.0013
793.00,-0.0013
792.00,-0.0013
791.00,-0.0013
790.00,-0.0013
789.00,-0.0013
788.00,-0.0013
787.00,-0.0013
786.00,-0.0013
785.00,-0.0013
784.00,-0.0013
783.00,-0.0013
782.00,-0.0013
781.00,-0.0013
780.00,-0.0013
779.00,-0.0013
778.00,-0.0013
777.00,-0.0013
776.00,-0.0013
775.00,-0.0013
774.00,-0.0013
773.00,-0.0013
772.00,-0.0013
771.00,-0.0013
770.00,-0.0013
769.00,-0.0013
768.00,-0.0013
767.00,-0.0013
766.00,-0.0013
765.00,-0.0013
764.00,-0.0013
763.00,-0.0013
762.00,-0.0013
761.00,-0.0013
760.00,-0.0013
759.00,-0.0013
758.00,-0.0013
757.00,-0.0013
756.00,-0.0013
755.00,-0.0013
754.00,-0.0013
753.00,-0.0013
752.00,-0.0013
751.00,-0.0013
750.00,-0.0013
749.00,-0.0013
748.00,-0.0013
747.00,-0.0013
746.00,-0.0013
745.00,-0.0013
744.00,-0.0013
743.00,-0.0013
742.00,-0.0013
741.00,-0.0013
740.00,-0.0012
739.00,-0.0012
738.00,-0.0012
737.00,-0.0012
736.00,-0.0013
735.00,-0.0013
734.00,-0.0013
733.00,-0.0013
732.00,-0.0013
731.00,-0.0013
730.00,-0.0013
729.00,-0.0013
728.00,-0.0013
727.00,-0.0013
726.00,-0.0013
725.00,-0.0013
724.00,-0.0013
723.00,-0.0013
722.00,-0.0013
721.00,-0.0013
720.00,-0.0013
719.00,-0.0012
718.00,-0.0013
717.00,-0.0013
716.00,-0.0013
715.00,-0.0013
714.00,-0.0013
713.00,-0.0013
712.00,-0.0013
711.00,-0.0013
710.00,-0.0013
709.00,-0.0013
708.00,-0.0013
707.00,-0.0013
706.00,-0.0013
705.00,-0.0013
704.00,-0.0014
703.00,-0.0014
702.00,-0.0013
701.00,-0.0013
700.00,-0.0013
699.00,-0.0013
698.00,-0.0013
697.00,-0.0013
696.00,-0.0013
695.00,-0.0013
694.00,-0.0013
693.00,-0.0013
692.00,-0.0013
691.00,-0.0014
690.00,-0.0014
689.00,-0.0014
688.00,-0.0014
687.00,-0.0014
686.00,-0.0014
685.00,-0.0015
684.00,-0.0015
683.00,-0.0015
682.00,-0.0015
681.00,-0.0015
680.00,-0.0015
679.00,-0.0015
678.00,-0.0015
677.00,-0.0014
676.00,-0.0014
675.00,-0.0014
674.00,-0.0014
673.00,-0.0015
672.00,-0.0016
671.00,-0.0017
670.00,-0.0019
669.00,-0.0022
668.00,-0.0024
667.00,-0.0023
666.00,-0.0020
665.00,-0.0018
664.00,-0.0016
663.00,-0.0015
662.00,-0.0014
661.00,-0.0014
660.00,-0.0014
659.00,-0.0014
658.00,-0.0015
657.00,-0.0015
656.00,-0.0015
655.00,-0.0015
654.00,-0.0015
653.00,-0.0015
652.00,-0.0015
651.00,-0.0015
650.00,-0.0015
649.00,-0.0015
648.00,-0.0015
647.00,-0.0015
646.00,-0.0015
645.00,-0.0015
644.00,-0.0015
643.00,-0.0015
642.00,-0.0015
641.00,-0.0015
640.00,-0.0014
639.00,-0.0014
638.00,-0.0014
637.00,-0.0014
636.00,-0.0014
635.00,-0.0014
634.00,-0.0014
633.00,-0.0014
632.00,-0.0014
631.00,-0.0014
630.00,-0.0014
629.00,-0.0014
628.00,-0.0014
627.00,-0.0014
626.00,-0.0014
625.00,-0.0014
624.00,-0.0014
623.00,-0.0014
622.00,-0.0015
621.00,-0.0015
620.00,-0.0015
619.00,-0.0015
618.00,-0.0015
617.00,-0.0015
616.00,-0.0014
615.00,-0.0014
614.00,-0.0015
613.00,-0.0015
612.00,-0.0015
611.00,-0.0014
610.00,-0.0015
609.00,-0.0015
608.00,-0.0015
607.00,-0.0015
606.00,-0.0015
605.00,-0.0016
604.00,-0.0016
603.00,-0.0016
602.00,-0.0015
601.00,-0.0015
600.00,-0.0014
599.00,-0.0014
598.00,-0.0014
597.00,-0.0015
596.00,-0.0015
595.00,-0.0016
594.00,-0.0017
593.00,-0.0017
592.00,-0.0016
591.00,-0.0015
590.00,-0.0015
589.00,-0.0015
588.00,-0.0015
587.00,-0.0015
586.00,-0.0015
585.00,-0.0014
584.00,-0.0014
583.00,-0.0015
582.00,-0.0016
581.00,-0.0016
580.00,-0.0016
579.00,-0.0015
578.00,-0.0016
577.00,-0.0016
576.00,-0.0016
575.00,-0.0015
574.00,-0.0016
573.00,-0.0016
572.00,-0.0016
571.00,-0.0015
570.00,-0.0015
569.00,-0.0015
568.00,-0.0015
567.00,-0.0015
566.00,-0.0015
565.00,-0.0015
564.00,-0.0015
563.00,-0.0015
562.00,-0.0016
561.00,-0.0016
560.00,-0.0015
559.00,-0.0015
558.00,-0.0015
557.00,-0.0015
556.00,-0.0014
555.00,-0.0014
554.00,-0.0014
553.00,-0.0014
552.00,-0.0014
551.00,-0.0014
550.00,-0.0014
549.00,-0.0014
548.00,-0.0014
547.00,-0.0015
546.00,-0.0015
545.00,-0.0016
544.00,-0.0015
543.00,-0.0015
542.00,-0.0015
541.00,-0.0016
540.00,-0.0016
539.00,-0.0016
538.00,-0.0016
537.00,-0.0016
536.00,-0.0015
535.00,-0.0015
534.00,-0.0015
533.00,-0.0015
532.00,-0.0015
531.00,-0.0015
530.00,-0.0015
529.00,-0.0015
528.00,-0.0014
527.00,-0.0014
526.00,-0.0014
525.00,-0.0013
524.00,-0.0013
523.00,-0.0014
522.00,-0.0015
521.00,-0.0015
520.00,-0.0015
519.00,-0.0015
518.00,-0.0015
517.00,-0.0015
516.00,-0.0014
515.00,-0.0014
514.00,-0.0015
513.00,-0.0015
512.00,-0.0015
511.00,-0.0016
510.00,-0.0016
509.00,-0.0016
508.00,-0.0016
507.00,-0.0016
506.00,-0.0016
505.00,-0.0016
504.00,-0.0016
503.00,-0.0015
502.00,-0.0015
501.00,-0.0015
500.00,-0.0016
