Created as New Dataset,Sample 347 By Analyst Date Tuesday, February 04 2025
cm-1,A
4000.00,-0.0006
3999.00,-0.0006
3998.00,-0.0006
3997.00,-0.0006
3996.00,-0.0006
3995.00,-0.0006
3994.00,-0.0005
3993.00,-0.0005
3992.00,-0.0005
3991.00,-0.0005
3990.00,-0.0005
3989.00,-0.0006
3988.00,-0.0005
3987.00,-0.0005
3986.00,-0.0005
3985.00,-0.0005
3984.00,-0.0005
3983.00,-0.0005
3982.00,-0.0005
3981.00,-0.0005
3980.00,-0.0005
3979.00,-0.0005
3978.00,-0.0005
3977.00,-0.0005
3976.00,-0.0005
3975.00,-0.0005
3974.00,-0.0005
3973.00,-0.0006
3972.00,-0.0005
3971.00,-0.0005
3970.00,-0.0005
3969.00,-0.0006
3968.00,-0.0006
3967.00,-0.0005
3966.00,-0.0005
3965.00,-0.0005
3964.00,-0.0005
3963.00,-0.0005
3962.00,-0.0005
3961.00,-0.0005
3960.00,-0.0005
3959.00,-0.0005
3958.00,-0.0005
3957.00,-0.0005
3956.00,-0.0005
3955.00,-0.0005
3954.00,-0.0005
3953.00,-0.0005
3952.00,-0.0005
3951.00,-0.0005
3950.00,-0.0005
3949.00,-0.0005
3948.00,-0.0005
3947.00,-0.0005
3946.00,-0.0005
3945.00,-0.0005
3944.00,-0.0005
3943.00,-0.0005
3942.00,-0.0005
3941.00,-0.0005
3940.00,-0.0005
3939.00,-0.0005
3938.00,-0.0005
3937.00,-0.0005
3936.00,-0.0005
3935.00,-0.0005
3934.00,-0.0005
3933.00,-0.0005
3932.00,-0.0005
3931.00,-0.0005
3930.00,-0.0005
3929.00,-0.0005
3928.00,-0.0005
3927.00,-0.0005
3926.00,-0.0005
3925.00,-0.0005
3924.00,-0.0005
3923.00,-0.0005
3922.00,-0.0005
3921.00,-0.0005
3920.00,-0.0004
3919.00,-0.0004
3918.00,-0.0005
3917.00,-0.0005
3916.00,-0.0005
3915.00,-0.0005
3914.00,-0.0005
3913.00,-0.0005
3912.00,-0.0005
3911.00,-0.0005
3910.00,-0.0005
3909.00,-0.0005
3908.00,-0.0005
3907.00,-0.0005
3906.00,-0.0005
3905.00,-0.0004
3904.00,-0.0004
3903.00,-0.0003
3902.00,-0.0003
3901.00,-0.0003
3900.00,-0.0003
3899.00,-0.0003
3898.00,-0.0004
3897.00,-0.0004
3896.00,-0.0004
3895.00,-0.0004
3894.00,-0.0004
3893.00,-0.0005
3892.00,-0.0005
3891.00,-0.0005
3890.00,-0.0005
3889.00,-0.0004
3888.00,-0.0004
3887.00,-0.0004
3886.00,-0.0004
3885.00,-0.0004
3884.00,-0.0004
3883.00,-0.0004
3882.00,-0.0003
3881.00,-0.0004
3880.00,-0.0004
3879.00,-0.0004
3878.00,-0.0004
3877.00,-0.0004
3876.00,-0.0004
3875.00,-0.0004
3874.00,-0.0004
3873.00,-0.0005
3872.00,-0.0004
3871.00,-0.0004
3870.00,-0.0004
3869.00,-0.0004
3868.00,-0.0004
3867.00,-0.0004
3866.00,-0.0003
3865.00,-0.0003
3864.00,-0.0004
3863.00,-0.0004
3862.00,-0.0004
3861.00,-0.0004
3860.00,-0.0004
3859.00,-0.0004
3858.00,-0.0005
3857.00,-0.0005
3856.00,-0.0006
3855.00,-0.0005
3854.00,-0.0005
3853.00,-0.0004
3852.00,-0.0004
3851.00,-0.0004
3850.00,-0.0004
3849.00,-0.0004
3848.00,-0.0004
3847.00,-0.0004
3846.00,-0.0004
3845.00,-0.0004
3844.00,-0.0004
3843.00,-0.0004
3842.00,-0.0004
3841.00,-0.0004
3840.00,-0.0004
3839.00,-0.0004
3838.00,-0.0004
3837.00,-0.0004
3836.00,-0.0004
3835.00,-0.0004
3834.00,-0.0004
3833.00,-0.0004
3832.00,-0.0004
3831.00,-0.0004
3830.00,-0.0004
3829.00,-0.0004
3828.00,-0.0004
3827.00,-0.0004
3826.00,-0.0004
3825.00,-0.0004
3824.00,-0.0004
3823.00,-0.0004
3822.00,-0.0003
3821.00,-0.0003
3820.00,-0.0004
3819.00,-0.0004
3818.00,-0.0003
3817.00,-0.0003
3816.00,-0.0004
3815.00,-0.0004
3814.00,-0.0004
3813.00,-0.0004
3812.00,-0.0004
3811.00,-0.0005
3810.00,-0.0005
3809.00,-0.0005
3808.00,-0.0005
3807.00,-0.0004
3806.00,-0.0005
3805.00,-0.0004
3804.00,-0.0004
3803.00,-0.0004
3802.00,-0.0004
3801.00,-0.0004
3800.00,-0.0004
3799.00,-0.0004
3798.00,-0.0004
3797.00,-0.0004
3796.00,-0.0004
3795.00,-0.0004
3794.00,-0.0004
3793.00,-0.0004
3792.00,-0.0005
3791.00,-0.0005
3790.00,-0.0005
3789.00,-0.0005
3788.00,-0.0005
3787.00,-0.0005
3786.00,-0.0005
3785.00,-0.0005
3784.00,-0.0005
3783.00,-0.0005
3782.00,-0.0005
3781.00,-0.0004
3780.00,-0.0004
3779.00,-0.0005
3778.00,-0.0005
3777.00,-0.0005
3776.00,-0.0005
3775.00,-0.0005
3774.00,-0.0005
3773.00,-0.0005
3772.00,-0.0005
3771.00,-0.0005
3770.00,-0.0004
3769.00,-0.0004
3768.00,-0.0004
3767.00,-0.0004
3766.00,-0.0004
3765.00,-0.0004
3764.00,-0.0004
3763.00,-0.0004
3762.00,-0.0004
3761.00,-0.0004
3760.00,-0.0004
3759.00,-0.0004
3758.00,-0.0004
3757.00,-0.0004
3756.00,-0.0004
3755.00,-0.0004
3754.00,-0.0004
3753.00,-0.0003
3752.00,-0.0003
3751.00,-0.0003
3750.00,-0.0003
3749.00,-0.0003
3748.00,-0.0003
3747.00,-0.0003
3746.00,-0.0002
3745.00,-0.0002
3744.00,-0.0003
3743.00,-0.0003
3742.00,-0.0003
3741.00,-0.0002
3740.00,-0.0002
3739.00,-0.0002
3738.00,-0.0002
3737.00,-0.0002
3736.00,-0.0002
3735.00,-0.0002
3734.00,-0.0002
3733.00,-0.0002
3732.00,-0.0003
3731.00,-0.0003
3730.00,-0.0003
3729.00,-0.0003
3728.00,-0.0003
3727.00,-0.0003
3726.00,-0.0004
3725.00,-0.0004
3724.00,-0.0004
3723.00,-0.0004
3722.00,-0.0004
3721.00,-0.0004
3720.00,-0.0004
3719.00,-0.0004
3718.00,-0.0004
3717.00,-0.0004
3716.00,-0.0004
3715.00,-0.0004
3714.00,-0.0004
3713.00,-0.0003
3712.00,-0.0003
3711.00,-0.0003
3710.00,-0.0003
3709.00,-0.0003
3708.00,-0.0003
3707.00,-0.0004
3706.00,-0.0004
3705.00,-0.0004
3704.00,-0.0004
3703.00,-0.0004
3702.00,-0.0004
3701.00,-0.0004
3700.00,-0.0005
3699.00,-0.0004
3698.00,-0.0004
3697.00,-0.0004
3696.00,-0.0004
3695.00,-0.0004
3694.00,-0.0004
3693.00,-0.0004
3692.00,-0.0004
3691.00,-0.0004
3690.00,-0.0004
3689.00,-0.0004
3688.00,-0.0004
3687.00,-0.0004
3686.00,-0.0004
3685.00,-0.0004
3684.00,-0.0004
3683.00,-0.0004
3682.00,-0.0004
3681.00,-0.0004
3680.00,-0.0004
3679.00,-0.0004
3678.00,-0.0004
3677.00,-0.0003
3676.00,-0.0003
3675.00,-0.0003
3674.00,-0.0003
3673.00,-0.0003
3672.00,-0.0002
3671.00,-0.0002
3670.00,-0.0003
3669.00,-0.0003
3668.00,-0.0003
3667.00,-0.0003
3666.00,-0.0004
3665.00,-0.0004
3664.00,-0.0004
3663.00,-0.0004
3662.00,-0.0004
3661.00,-0.0005
3660.00,-0.0005
3659.00,-0.0004
3658.00,-0.0004
3657.00,-0.0004
3656.00,-0.0004
3655.00,-0.0004
3654.00,-0.0004
3653.00,-0.0003
3652.00,-0.0003
3651.00,-0.0002
3650.00,-0.0002
3649.00,-0.0002
3648.00,-0.0002
3647.00,-0.0002
3646.00,-0.0002
3645.00,-0.0003
3644.00,-0.0003
3643.00,-0.0004
3642.00,-0.0004
3641.00,-0.0004
3640.00,-0.0004
3639.00,-0.0004
3638.00,-0.0004
3637.00,-0.0004
3636.00,-0.0004
3635.00,-0.0004
3634.00,-0.0004
3633.00,-0.0004
3632.00,-0.0004
3631.00,-0.0003
3630.00,-0.0003
3629.00,-0.0003
3628.00,-0.0003
3627.00,-0.0003
3626.00,-0.0003
3625.00,-0.0003
3624.00,-0.0003
3623.00,-0.0004
3622.00,-0.0004
3621.00,-0.0004
3620.00,-0.0004
3619.00,-0.0004
3618.00,-0.0004
3617.00,-0.0003
3616.00,-0.0003
3615.00,-0.0003
3614.00,-0.0003
3613.00,-0.0003
3612.00,-0.0003
3611.00,-0.0003
3610.00,-0.0003
3609.00,-0.0003
3608.00,-0.0003
3607.00,-0.0003
3606.00,-0.0004
3605.00,-0.0004
3604.00,-0.0004
3603.00,-0.0004
3602.00,-0.0004
3601.00,-0.0004
3600.00,-0.0004
3599.00,-0.0004
3598.00,-0.0004
3597.00,-0.0004
3596.00,-0.0004
3595.00,-0.0004
3594.00,-0.0004
3593.00,-0.0004
3592.00,-0.0004
3591.00,-0.0003
3590.00,-0.0003
3589.00,-0.0003
3588.00,-0.0003
3587.00,-0.0003
3586.00,-0.0003
3585.00,-0.0003
3584.00,-0.0004
3583.00,-0.0004
3582.00,-0.0004
3581.00,-0.0004
3580.00,-0.0004
3579.00,-0.0004
3578.00,-0.0004
3577.00,-0.0004
3576.00,-0.0004
3575.00,-0.0004
3574.00,-0.0004
3573.00,-0.0004
3572.00,-0.0004
3571.00,-0.0004
3570.00,-0.0003
3569.00,-0.0003
3568.00,-0.0003
3567.00,-0.0003
3566.00,-0.0003
3565.00,-0.0003
3564.00,-0.0003
3563.00,-0.0003
3562.00,-0.0004
3561.00,-0.0004
3560.00,-0.0004
3559.00,-0.0004
3558.00,-0.0004
3557.00,-0.0004
3556.00,-0.0004
3555.00,-0.0004
3554.00,-0.0004
3553.00,-0.0004
3552.00,-0.0004
3551.00,-0.0004
3550.00,-0.0004
3549.00,-0.0004
3548.00,-0.0004
3547.00,-0.0004
3546.00,-0.0004
3545.00,-0.0004
3544.00,-0.0004
3543.00,-0.0004
3542.00,-0.0004
3541.00,-0.0004
3540.00,-0.0004
3539.00,-0.0004
3538.00,-0.0005
3537.00,-0.0005
3536.00,-0.0005
3535.00,-0.0005
3534.00,-0.0005
3533.00,-0.0004
3532.00,-0.0004
3531.00,-0.0004
3530.00,-0.0004
3529.00,-0.0004
3528.00,-0.0004
3527.00,-0.0004
3526.00,-0.0004
3525.00,-0.0004
3524.00,-0.0004
3523.00,-0.0004
3522.00,-0.0004
3521.00,-0.0004
3520.00,-0.0004
3519.00,-0.0004
3518.00,-0.0004
3517.00,-0.0004
3516.00,-0.0005
3515.00,-0.0005
3514.00,-0.0005
3513.00,-0.0005
3512.00,-0.0005
3511.00,-0.0005
3510.00,-0.0005
3509.00,-0.0005
3508.00,-0.0004
3507.00,-0.0004
3506.00,-0.0004
3505.00,-0.0004
3504.00,-0.0004
3503.00,-0.0004
3502.00,-0.0004
3501.00,-0.0004
3500.00,-0.0004
3499.00,-0.0004
3498.00,-0.0005
3497.00,-0.0005
3496.00,-0.0005
3495.00,-0.0005
3494.00,-0.0005
3493.00,-0.0005
3492.00,-0.0005
3491.00,-0.0005
3490.00,-0.0005
3489.00,-0.0005
3488.00,-0.0005
3487.00,-0.0005
3486.00,-0.0005
3485.00,-0.0005
3484.00,-0.0005
3483.00,-0.0005
3482.00,-0.0005
3481.00,-0.0005
3480.00,-0.0005
3479.00,-0.0005
3478.00,-0.0005
3477.00,-0.0005
3476.00,-0.0005
3475.00,-0.0005
3474.00,-0.0005
3473.00,-0.0005
3472.00,-0.0005
3471.00,-0.0005
3470.00,-0.0005
3469.00,-0.0005
3468.00,-0.0005
3467.00,-0.0005
3466.00,-0.0005
3465.00,-0.0005
3464.00,-0.0005
3463.00,-0.0005
3462.00,-0.0005
3461.00,-0.0005
3460.00,-0.0005
3459.00,-0.0005
3458.00,-0.0005
3457.00,-0.0005
3456.00,-0.0005
3455.00,-0.0005
3454.00,-0.0005
3453.00,-0.0005
3452.00,-0.0005
3451.00,-0.0005
3450.00,-0.0005
3449.00,-0.0005
3448.00,-0.0005
3447.00,-0.0005
3446.00,-0.0005
3445.00,-0.0005
3444.00,-0.0005
3443.00,-0.0005
3442.00,-0.0005
3441.00,-0.0005
3440.00,-0.0005
3439.00,-0.0005
3438.00,-0.0005
3437.00,-0.0005
3436.00,-0.0005
3435.00,-0.0005
3434.00,-0.0005
3433.00,-0.0005
3432.00,-0.0005
3431.00,-0.0005
3430.00,-0.0005
3429.00,-0.0005
3428.00,-0.0005
3427.00,-0.0005
3426.00,-0.0005
3425.00,-0.0005
3424.00,-0.0005
3423.00,-0.0005
3422.00,-0.0005
3421.00,-0.0005
3420.00,-0.0005
3419.00,-0.0005
3418.00,-0.0005
3417.00,-0.0005
3416.00,-0.0005
3415.00,-0.0005
3414.00,-0.0005
3413.00,-0.0005
3412.00,-0.0005
3411.00,-0.0005
3410.00,-0.0005
3409.00,-0.0005
3408.00,-0.0005
3407.00,-0.0005
3406.00,-0.0005
3405.00,-0.0005
3404.00,-0.0005
3403.00,-0.0005
3402.00,-0.0005
3401.00,-0.0005
3400.00,-0.0005
3399.00,-0.0005
3398.00,-0.0005
3397.00,-0.0005
3396.00,-0.0005
3395.00,-0.0005
3394.00,-0.0005
3393.00,-0.0005
3392.00,-0.0005
3391.00,-0.0005
3390.00,-0.0005
3389.00,-0.0005
3388.00,-0.0005
3387.00,-0.0005
3386.00,-0.0005
3385.00,-0.0005
3384.00,-0.0005
3383.00,-0.0005
3382.00,-0.0005
3381.00,-0.0005
3380.00,-0.0005
3379.00,-0.0005
3378.00,-0.0005
3377.00,-0.0005
3376.00,-0.0005
3375.00,-0.0005
3374.00,-0.0005
3373.00,-0.0005
3372.00,-0.0005
3371.00,-0.0005
3370.00,-0.0005
3369.00,-0.0005
3368.00,-0.0005
3367.00,-0.0005
3366.00,-0.0005
3365.00,-0.0005
3364.00,-0.0005
3363.00,-0.0005
3362.00,-0.0005
3361.00,-0.0005
3360.00,-0.0005
3359.00,-0.0005
3358.00,-0.0005
3357.00,-0.0005
3356.00,-0.0005
3355.00,-0.0005
3354.00,-0.0005
3353.00,-0.0005
3352.00,-0.0005
3351.00,-0.0005
3350.00,-0.0005
3349.00,-0.0005
3348.00,-0.0005
3347.00,-0.0005
3346.00,-0.0005
3345.00,-0.0005
3344.00,-0.0005
3343.00,-0.0005
3342.00,-0.0005
3341.00,-0.0005
3340.00,-0.0005
3339.00,-0.0005
3338.00,-0.0005
3337.00,-0.0005
3336.00,-0.0005
3335.00,-0.0005
3334.00,-0.0005
3333.00,-0.0005
3332.00,-0.0005
3331.00,-0.0005
3330.00,-0.0005
3329.00,-0.0005
3328.00,-0.0005
3327.00,-0.0005
3326.00,-0.0005
3325.00,-0.0005
3324.00,-0.0005
3323.00,-0.0005
3322.00,-0.0005
3321.00,-0.0005
3320.00,-0.0005
3319.00,-0.0005
3318.00,-0.0005
3317.00,-0.0005
3316.00,-0.0005
3315.00,-0.0005
3314.00,-0.0005
3313.00,-0.0005
3312.00,-0.0005
3311.00,-0.0005
3310.00,-0.0005
3309.00,-0.0005
3308.00,-0.0005
3307.00,-0.0005
3306.00,-0.0005
3305.00,-0.0005
3304.00,-0.0005
3303.00,-0.0005
3302.00,-0.0005
3301.00,-0.0005
3300.00,-0.0005
3299.00,-0.0005
3298.00,-0.0005
3297.00,-0.0005
3296.00,-0.0005
3295.00,-0.0005
3294.00,-0.0005
3293.00,-0.0005
3292.00,-0.0005
3291.00,-0.0005
3290.00,-0.0005
3289.00,-0.0005
3288.00,-0.0005
3287.00,-0.0005
3286.00,-0.0005
3285.00,-0.0005
3284.00,-0.0005
3283.00,-0.0005
3282.00,-0.0005
3281.00,-0.0005
3280.00,-0.0005
3279.00,-0.0005
3278.00,-0.0005
3277.00,-0.0005
3276.00,-0.0005
3275.00,-0.0005
3274.00,-0.0005
3273.00,-0.0005
3272.00,-0.0005
3271.00,-0.0005
3270.00,-0.0005
3269.00,-0.0005
3268.00,-0.0005
3267.00,-0.0005
3266.00,-0.0005
3265.00,-0.0005
3264.00,-0.0005
3263.00,-0.0005
3262.00,-0.0005
3261.00,-0.0005
3260.00,-0.0005
3259.00,-0.0005
3258.00,-0.0005
3257.00,-0.0005
3256.00,-0.0005
3255.00,-0.0005
3254.00,-0.0005
3253.00,-0.0005
3252.00,-0.0005
3251.00,-0.0005
3250.00,-0.0005
3249.00,-0.0005
3248.00,-0.0005
3247.00,-0.0005
3246.00,-0.0005
3245.00,-0.0005
3244.00,-0.0005
3243.00,-0.0005
3242.00,-0.0005
3241.00,-0.0005
3240.00,-0.0005
3239.00,-0.0005
3238.00,-0.0005
3237.00,-0.0005
3236.00,-0.0005
3235.00,-0.0005
3234.00,-0.0005
3233.00,-0.0005
3232.00,-0.0005
3231.00,-0.0005
3230.00,-0.0005
3229.00,-0.0005
3228.00,-0.0005
3227.00,-0.0005
3226.00,-0.0005
3225.00,-0.0005
3224.00,-0.0005
3223.00,-0.0005
3222.00,-0.0005
3221.00,-0.0005
3220.00,-0.0005
3219.00,-0.0005
3218.00,-0.0005
3217.00,-0.0005
3216.00,-0.0005
3215.00,-0.0005
3214.00,-0.0005
3213.00,-0.0005
3212.00,-0.0005
3211.00,-0.0005
3210.00,-0.0005
3209.00,-0.0005
3208.00,-0.0005
3207.00,-0.0005
3206.00,-0.0005
3205.00,-0.0005
3204.00,-0.0005
3203.00,-0.0005
3202.00,-0.0005
3201.00,-0.0005
3200.00,-0.0005
3199.00,-0.0005
3198.00,-0.0005
3197.00,-0.0005
3196.00,-0.0005
3195.00,-0.0005
3194.00,-0.0005
3193.00,-0.0005
3192.00,-0.0005
3191.00,-0.0005
3190.00,-0.0005
3189.00,-0.0005
3188.00,-0.0005
3187.00,-0.0005
3186.00,-0.0005
3185.00,-0.0005
3184.00,-0.0005
3183.00,-0.0005
3182.00,-0.0005
3181.00,-0.0005
3180.00,-0.0005
3179.00,-0.0005
3178.00,-0.0005
3177.00,-0.0005
3176.00,-0.0005
3175.00,-0.0005
3174.00,-0.0005
3173.00,-0.0005
3172.00,-0.0005
3171.00,-0.0005
3170.00,-0.0005
3169.00,-0.0005
3168.00,-0.0005
3167.00,-0.0005
3166.00,-0.0005
3165.00,-0.0005
3164.00,-0.0005
3163.00,-0.0005
3162.00,-0.0005
3161.00,-0.0005
3160.00,-0.0005
3159.00,-0.0005
3158.00,-0.0005
3157.00,-0.0005
3156.00,-0.0005
3155.00,-0.0005
3154.00,-0.0005
3153.00,-0.0005
3152.00,-0.0005
3151.00,-0.0005
3150.00,-0.0005
3149.00,-0.0005
3148.00,-0.0005
3147.00,-0.0005
3146.00,-0.0005
3145.00,-0.0005
3144.00,-0.0005
3143.00,-0.0005
3142.00,-0.0005
3141.00,-0.0005
3140.00,-0.0005
3139.00,-0.0005
3138.00,-0.0005
3137.00,-0.0005
3136.00,-0.0005
3135.00,-0.0005
3134.00,-0.0005
3133.00,-0.0005
3132.00,-0.0005
3131.00,-0.0005
3130.00,-0.0005
3129.00,-0.0005
3128.00,-0.0005
3127.00,-0.0005
3126.00,-0.0005
3125.00,-0.0005
3124.00,-0.0005
3123.00,-0.0005
3122.00,-0.0005
3121.00,-0.0005
3120.00,-0.0005
3119.00,-0.0005
3118.00,-0.0005
3117.00,-0.0005
3116.00,-0.0005
3115.00,-0.0005
3114.00,-0.0005
3113.00,-0.0005
3112.00,-0.0005
3111.00,-0.0005
3110.00,-0.0005
3109.00,-0.0005
3108.00,-0.0005
3107.00,-0.0005
3106.00,-0.0005
3105.00,-0.0005
3104.00,-0.0005
3103.00,-0.0005
3102.00,-0.0005
3101.00,-0.0005
3100.00,-0.0005
3099.00,-0.0005
3098.00,-0.0005
3097.00,-0.0005
3096.00,-0.0005
3095.00,-0.0005
3094.00,-0.0005
3093.00,-0.0005
3092.00,-0.0005
3091.00,-0.0005
3090.00,-0.0005
3089.00,-0.0005
3088.00,-0.0005
3087.00,-0.0005
3086.00,-0.0005
3085.00,-0.0005
3084.00,-0.0005
3083.00,-0.0005
3082.00,-0.0005
3081.00,-0.0005
3080.00,-0.0005
3079.00,-0.0005
3078.00,-0.0005
3077.00,-0.0005
3076.00,-0.0005
3075.00,-0.0005
3074.00,-0.0005
3073.00,-0.0005
3072.00,-0.0005
3071.00,-0.0005
3070.00,-0.0005
3069.00,-0.0005
3068.00,-0.0005
3067.00,-0.0005
3066.00,-0.0005
3065.00,-0.0005
3064.00,-0.0005
3063.00,-0.0005
3062.00,-0.0005
3061.00,-0.0005
3060.00,-0.0005
3059.00,-0.0005
3058.00,-0.0005
3057.00,-0.0005
3056.00,-0.0005
3055.00,-0.0005
3054.00,-0.0005
3053.00,-0.0005
3052.00,-0.0005
3051.00,-0.0005
3050.00,-0.0005
3049.00,-0.0005
3048.00,-0.0005
3047.00,-0.0005
3046.00,-0.0005
3045.00,-0.0005
3044.00,-0.0005
3043.00,-0.0005
3042.00,-0.0005
3041.00,-0.0005
3040.00,-0.0005
3039.00,-0.0005
3038.00,-0.0005
3037.00,-0.0005
3036.00,-0.0004
3035.00,-0.0004
3034.00,-0.0004
3033.00,-0.0004
3032.00,-0.0005
3031.00,-0.0005
3030.00,-0.0005
3029.00,-0.0005
3028.00,-0.0005
3027.00,-0.0005
3026.00,-0.0004
3025.00,-0.0004
3024.00,-0.0004
3023.00,-0.0004
3022.00,-0.0004
3021.00,-0.0005
3020.00,-0.0005
3019.00,-0.0005
3018.00,-0.0005
3017.00,-0.0005
3016.00,-0.0005
3015.00,-0.0005
3014.00,-0.0005
3013.00,-0.0005
3012.00,-0.0005
3011.00,-0.0005
3010.00,-0.0005
3009.00,-0.0005
3008.00,-0.0005
3007.00,-0.0005
3006.00,-0.0005
3005.00,-0.0005
3004.00,-0.0005
3003.00,-0.0005
3002.00,-0.0005
3001.00,-0.0005
3000.00,-0.0005
2999.00,-0.0005
2998.00,-0.0005
2997.00,-0.0005
2996.00,-0.0005
2995.00,-0.0005
2994.00,-0.0005
2993.00,-0.0005
2992.00,-0.0004
2991.00,-0.0004
2990.00,-0.0004
2989.00,-0.0004
2988.00,-0.0004
2987.00,-0.0004
2986.00,-0.0004
2985.00,-0.0004
2984.00,-0.0005
2983.00,-0.0005
2982.00,-0.0004
2981.00,-0.0004
2980.00,-0.0004
2979.00,-0.0005
2978.00,-0.0005
2977.00,-0.0004
2976.00,-0.0004
2975.00,-0.0004
2974.00,-0.0004
2973.00,-0.0004
2972.00,-0.0004
2971.00,-0.0004
2970.00,-0.0005
2969.00,-0.0005
2968.00,-0.0005
2967.00,-0.0005
2966.00,-0.0005
2965.00,-0.0005
2964.00,-0.0004
2963.00,-0.0004
2962.00,-0.0004
2961.00,-0.0004
2960.00,-0.0005
2959.00,-0.0005
2958.00,-0.0005
2957.00,-0.0005
2956.00,-0.0005
2955.00,-0.0005
2954.00,-0.0005
2953.00,-0.0005
2952.00,-0.0005
2951.00,-0.0005
2950.00,-0.0005
2949.00,-0.0004
2948.00,-0.0004
2947.00,-0.0004
2946.00,-0.0004
2945.00,-0.0004
2944.00,-0.0004
2943.00,-0.0004
2942.00,-0.0004
2941.00,-0.0004
2940.00,-0.0004
2939.00,-0.0004
2938.00,-0.0004
2937.00,-0.0004
2936.00,-0.0004
2935.00,-0.0004
2934.00,-0.0004
2933.00,-0.0004
2932.00,-0.0004
2931.00,-0.0004
2930.00,-0.0004
2929.00,-0.0004
2928.00,-0.0005
2927.00,-0.0005
2926.00,-0.0005
2925.00,-0.0005
2924.00,-0.0005
2923.00,-0.0005
2922.00,-0.0005
2921.00,-0.0005
2920.00,-0.0005
2919.00,-0.0005
2918.00,-0.0005
2917.00,-0.0005
2916.00,-0.0005
2915.00,-0.0005
2914.00,-0.0005
2913.00,-0.0005
2912.00,-0.0005
2911.00,-0.0005
2910.00,-0.0005
2909.00,-0.0005
2908.00,-0.0005
2907.00,-0.0005
2906.00,-0.0004
2905.00,-0.0004
2904.00,-0.0004
2903.00,-0.0004
2902.00,-0.0004
2901.00,-0.0004
2900.00,-0.0005
2899.00,-0.0005
2898.00,-0.0004
2897.00,-0.0004
2896.00,-0.0004
2895.00,-0.0004
2894.00,-0.0004
2893.00,-0.0004
2892.00,-0.0004
2891.00,-0.0005
2890.00,-0.0005
2889.00,-0.0005
2888.00,-0.0005
2887.00,-0.0004
2886.00,-0.0004
2885.00,-0.0004
2884.00,-0.0005
2883.00,-0.0005
2882.00,-0.0005
2881.00,-0.0005
2880.00,-0.0004
2879.00,-0.0004
2878.00,-0.0004
2877.00,-0.0004
2876.00,-0.0004
2875.00,-0.0004
2874.00,-0.0004
2873.00,-0.0004
2872.00,-0.0004
2871.00,-0.0004
2870.00,-0.0004
2869.00,-0.0004
2868.00,-0.0004
2867.00,-0.0004
2866.00,-0.0004
2865.00,-0.0004
2864.00,-0.0004
2863.00,-0.0004
2862.00,-0.0004
2861.00,-0.0004
2860.00,-0.0004
2859.00,-0.0005
2858.00,-0.0005
2857.00,-0.0005
2856.00,-0.0005
2855.00,-0.0005
2854.00,-0.0005
2853.00,-0.0005
2852.00,-0.0005
2851.00,-0.0005
2850.00,-0.0005
2849.00,-0.0005
2848.00,-0.0005
2847.00,-0.0005
2846.00,-0.0005
2845.00,-0.0005
2844.00,-0.0005
2843.00,-0.0005
2842.00,-0.0005
2841.00,-0.0005
2840.00,-0.0005
2839.00,-0.0004
2838.00,-0.0004
2837.00,-0.0004
2836.00,-0.0004
2835.00,-0.0004
2834.00,-0.0004
2833.00,-0.0004
2832.00,-0.0004
2831.00,-0.0004
2830.00,-0.0005
2829.00,-0.0005
2828.00,-0.0005
2827.00,-0.0005
2826.00,-0.0005
2825.00,-0.0005
2824.00,-0.0005
2823.00,-0.0005
2822.00,-0.0005
2821.00,-0.0005
2820.00,-0.0004
2819.00,-0.0004
2818.00,-0.0005
2817.00,-0.0005
2816.00,-0.0005
2815.00,-0.0005
2814.00,-0.0005
2813.00,-0.0004
2812.00,-0.0004
2811.00,-0.0004
2810.00,-0.0004
2809.00,-0.0004
2808.00,-0.0005
2807.00,-0.0005
2806.00,-0.0004
2805.00,-0.0004
2804.00,-0.0004
2803.00,-0.0004
2802.00,-0.0004
2801.00,-0.0004
2800.00,-0.0004
2799.00,-0.0004
2798.00,-0.0004
2797.00,-0.0004
2796.00,-0.0004
2795.00,-0.0004
2794.00,-0.0004
2793.00,-0.0004
2792.00,-0.0004
2791.00,-0.0004
2790.00,-0.0004
2789.00,-0.0004
2788.00,-0.0004
2787.00,-0.0004
2786.00,-0.0004
2785.00,-0.0005
2784.00,-0.0005
2783.00,-0.0005
2782.00,-0.0005
2781.00,-0.0005
2780.00,-0.0004
2779.00,-0.0004
2778.00,-0.0004
2777.00,-0.0004
2776.00,-0.0004
2775.00,-0.0004
2774.00,-0.0004
2773.00,-0.0004
2772.00,-0.0004
2771.00,-0.0004
2770.00,-0.0004
2769.00,-0.0004
2768.00,-0.0004
2767.00,-0.0004
2766.00,-0.0004
2765.00,-0.0004
2764.00,-0.0004
2763.00,-0.0004
2762.00,-0.0004
2761.00,-0.0004
2760.00,-0.0004
2759.00,-0.0004
2758.00,-0.0004
2757.00,-0.0004
2756.00,-0.0004
2755.00,-0.0004
2754.00,-0.0004
2753.00,-0.0004
2752.00,-0.0004
2751.00,-0.0004
2750.00,-0.0004
2749.00,-0.0004
2748.00,-0.0004
2747.00,-0.0004
2746.00,-0.0004
2745.00,-0.0004
2744.00,-0.0004
2743.00,-0.0004
2742.00,-0.0004
2741.00,-0.0004
2740.00,-0.0004
2739.00,-0.0004
2738.00,-0.0004
2737.00,-0.0004
2736.00,-0.0004
2735.00,-0.0004
2734.00,-0.0004
2733.00,-0.0004
2732.00,-0.0004
2731.00,-0.0004
2730.00,-0.0004
2729.00,-0.0004
2728.00,-0.0004
2727.00,-0.0004
2726.00,-0.0004
2725.00,-0.0004
2724.00,-0.0004
2723.00,-0.0004
2722.00,-0.0004
2721.00,-0.0004
2720.00,-0.0004
2719.00,-0.0004
2718.00,-0.0004
2717.00,-0.0004
2716.00,-0.0004
2715.00,-0.0004
2714.00,-0.0004
2713.00,-0.0004
2712.00,-0.0004
2711.00,-0.0004
2710.00,-0.0004
2709.00,-0.0004
2708.00,-0.0004
2707.00,-0.0004
2706.00,-0.0004
2705.00,-0.0004
2704.00,-0.0004
2703.00,-0.0004
2702.00,-0.0004
2701.00,-0.0004
2700.00,-0.0004
2699.00,-0.0004
2698.00,-0.0004
2697.00,-0.0004
2696.00,-0.0004
2695.00,-0.0004
2694.00,-0.0004
2693.00,-0.0004
2692.00,-0.0004
2691.00,-0.0004
2690.00,-0.0004
2689.00,-0.0004
2688.00,-0.0004
2687.00,-0.0004
2686.00,-0.0004
2685.00,-0.0004
2684.00,-0.0004
2683.00,-0.0004
2682.00,-0.0004
2681.00,-0.0004
2680.00,-0.0004
2679.00,-0.0004
2678.00,-0.0004
2677.00,-0.0004
2676.00,-0.0004
2675.00,-0.0004
2674.00,-0.0004
2673.00,-0.0004
2672.00,-0.0004
2671.00,-0.0004
2670.00,-0.0004
2669.00,-0.0004
2668.00,-0.0004
2667.00,-0.0004
2666.00,-0.0004
2665.00,-0.0004
2664.00,-0.0004
2663.00,-0.0004
2662.00,-0.0004
2661.00,-0.0004
2660.00,-0.0004
2659.00,-0.0005
2658.00,-0.0005
2657.00,-0.0005
2656.00,-0.0005
2655.00,-0.0005
2654.00,-0.0005
2653.00,-0.0005
2652.00,-0.0004
2651.00,-0.0004
2650.00,-0.0004
2649.00,-0.0004
2648.00,-0.0004
2647.00,-0.0004
2646.00,-0.0004
2645.00,-0.0004
2644.00,-0.0004
2643.00,-0.0004
2642.00,-0.0004
2641.00,-0.0004
2640.00,-0.0004
2639.00,-0.0004
2638.00,-0.0004
2637.00,-0.0004
2636.00,-0.0004
2635.00,-0.0004
2634.00,-0.0004
2633.00,-0.0004
2632.00,-0.0004
2631.00,-0.0004
2630.00,-0.0004
2629.00,-0.0004
2628.00,-0.0004
2627.00,-0.0004
2626.00,-0.0004
2625.00,-0.0004
2624.00,-0.0004
2623.00,-0.0004
2622.00,-0.0004
2621.00,-0.0004
2620.00,-0.0004
2619.00,-0.0004
2618.00,-0.0004
2617.00,-0.0004
2616.00,-0.0004
2615.00,-0.0004
2614.00,-0.0004
2613.00,-0.0004
2612.00,-0.0004
2611.00,-0.0004
2610.00,-0.0004
2609.00,-0.0004
2608.00,-0.0004
2607.00,-0.0004
2606.00,-0.0004
2605.00,-0.0004
2604.00,-0.0004
2603.00,-0.0004
2602.00,-0.0004
2601.00,-0.0004
2600.00,-0.0004
2599.00,-0.0004
2598.00,-0.0004
2597.00,-0.0004
2596.00,-0.0004
2595.00,-0.0004
2594.00,-0.0004
2593.00,-0.0004
2592.00,-0.0004
2591.00,-0.0004
2590.00,-0.0004
2589.00,-0.0004
2588.00,-0.0004
2587.00,-0.0004
2586.00,-0.0004
2585.00,-0.0004
2584.00,-0.0004
2583.00,-0.0004
2582.00,-0.0004
2581.00,-0.0004
2580.00,-0.0004
2579.00,-0.0004
2578.00,-0.0004
2577.00,-0.0004
2576.00,-0.0004
2575.00,-0.0004
2574.00,-0.0004
2573.00,-0.0004
2572.00,-0.0004
2571.00,-0.0004
2570.00,-0.0004
2569.00,-0.0004
2568.00,-0.0004
2567.00,-0.0004
2566.00,-0.0004
2565.00,-0.0004
2564.00,-0.0004
2563.00,-0.0004
2562.00,-0.0004
2561.00,-0.0004
2560.00,-0.0004
2559.00,-0.0004
2558.00,-0.0004
2557.00,-0.0004
2556.00,-0.0004
2555.00,-0.0004
2554.00,-0.0004
2553.00,-0.0004
2552.00,-0.0004
2551.00,-0.0004
2550.00,-0.0004
2549.00,-0.0004
2548.00,-0.0004
2547.00,-0.0004
2546.00,-0.0004
2545.00,-0.0004
2544.00,-0.0004
2543.00,-0.0004
2542.00,-0.0004
2541.00,-0.0004
2540.00,-0.0004
2539.00,-0.0004
2538.00,-0.0004
2537.00,-0.0004
2536.00,-0.0004
2535.00,-0.0004
2534.00,-0.0004
2533.00,-0.0004
2532.00,-0.0004
2531.00,-0.0004
2530.00,-0.0004
2529.00,-0.0004
2528.00,-0.0005
2527.00,-0.0005
2526.00,-0.0005
2525.00,-0.0004
2524.00,-0.0004
2523.00,-0.0004
2522.00,-0.0004
2521.00,-0.0004
2520.00,-0.0004
2519.00,-0.0004
2518.00,-0.0004
2517.00,-0.0004
2516.00,-0.0004
2515.00,-0.0004
2514.00,-0.0004
2513.00,-0.0004
2512.00,-0.0004
2511.00,-0.0004
2510.00,-0.0004
2509.00,-0.0004
2508.00,-0.0004
2507.00,-0.0004
2506.00,-0.0004
2505.00,-0.0004
2504.00,-0.0004
2503.00,-0.0004
2502.00,-0.0004
2501.00,-0.0004
2500.00,-0.0004
2499.00,-0.0004
2498.00,-0.0004
2497.00,-0.0004
2496.00,-0.0004
2495.00,-0.0004
2494.00,-0.0004
2493.00,-0.0004
2492.00,-0.0004
2491.00,-0.0004
2490.00,-0.0004
2489.00,-0.0004
2488.00,-0.0004
2487.00,-0.0004
2486.00,-0.0004
2485.00,-0.0004
2484.00,-0.0004
2483.00,-0.0004
2482.00,-0.0004
2481.00,-0.0004
2480.00,-0.0004
2479.00,-0.0004
2478.00,-0.0004
2477.00,-0.0004
2476.00,-0.0004
2475.00,-0.0004
2474.00,-0.0004
2473.00,-0.0004
2472.00,-0.0004
2471.00,-0.0004
2470.00,-0.0004
2469.00,-0.0004
2468.00,-0.0004
2467.00,-0.0004
2466.00,-0.0004
2465.00,-0.0004
2464.00,-0.0004
2463.00,-0.0004
2462.00,-0.0004
2461.00,-0.0004
2460.00,-0.0004
2459.00,-0.0004
2458.00,-0.0004
2457.00,-0.0004
2456.00,-0.0004
2455.00,-0.0004
2454.00,-0.0004
2453.00,-0.0004
2452.00,-0.0004
2451.00,-0.0004
2450.00,-0.0004
2449.00,-0.0004
2448.00,-0.0004
2447.00,-0.0004
2446.00,-0.0004
2445.00,-0.0004
2444.00,-0.0004
2443.00,-0.0004
2442.00,-0.0004
2441.00,-0.0004
2440.00,-0.0004
2439.00,-0.0004
2438.00,-0.0004
2437.00,-0.0004
2436.00,-0.0004
2435.00,-0.0004
2434.00,-0.0004
2433.00,-0.0004
2432.00,-0.0004
2431.00,-0.0004
2430.00,-0.0004
2429.00,-0.0004
2428.00,-0.0004
2427.00,-0.0004
2426.00,-0.0004
2425.00,-0.0004
2424.00,-0.0004
2423.00,-0.0004
2422.00,-0.0004
2421.00,-0.0004
2420.00,-0.0004
2419.00,-0.0004
2418.00,-0.0004
2417.00,-0.0004
2416.00,-0.0004
2415.00,-0.0004
2414.00,-0.0004
2413.00,-0.0004
2412.00,-0.0004
2411.00,-0.0004
2410.00,-0.0004
2409.00,-0.0004
2408.00,-0.0004
2407.00,-0.0004
2406.00,-0.0004
2405.00,-0.0004
2404.00,-0.0004
2403.00,-0.0004
2402.00,-0.0004
2401.00,-0.0004
2400.00,-0.0004
2399.00,-0.0004
2398.00,-0.0004
2397.00,-0.0004
2396.00,-0.0004
2395.00,-0.0004
2394.00,-0.0004
2393.00,-0.0004
2392.00,-0.0004
2391.00,-0.0004
2390.00,-0.0004
2389.00,-0.0004
2388.00,-0.0004
2387.00,-0.0004
2386.00,-0.0004
2385.00,-0.0004
2384.00,-0.0004
2383.00,-0.0004
2382.00,-0.0004
2381.00,-0.0004
2380.00,-0.0004
2379.00,-0.0004
2378.00,-0.0004
2377.00,-0.0004
2376.00,-0.0004
2375.00,-0.0004
2374.00,-0.0004
2373.00,-0.0004
2372.00,-0.0004
2371.00,-0.0004
2370.00,-0.0004
2369.00,-0.0004
2368.00,-0.0004
2367.00,-0.0004
2366.00,-0.0004
2365.00,-0.0004
2364.00,-0.0004
2363.00,-0.0004
2362.00,-0.0004
2361.00,-0.0004
2360.00,-0.0004
2359.00,-0.0004
2358.00,-0.0004
2357.00,-0.0004
2356.00,-0.0004
2355.00,-0.0004
2354.00,-0.0004
2353.00,-0.0004
2352.00,-0.0004
2351.00,-0.0004
2350.00,-0.0004
2349.00,-0.0004
2348.00,-0.0003
2347.00,-0.0003
2346.00,-0.0003
2345.00,-0.0004
2344.00,-0.0004
2343.00,-0.0004
2342.00,-0.0004
2341.00,-0.0004
2340.00,-0.0004
2339.00,-0.0004
2338.00,-0.0004
2337.00,-0.0004
2336.00,-0.0004
2335.00,-0.0003
2334.00,-0.0003
2333.00,-0.0003
2332.00,-0.0003
2331.00,-0.0003
2330.00,-0.0003
2329.00,-0.0003
2328.00,-0.0003
2327.00,-0.0003
2326.00,-0.0003
2325.00,-0.0003
2324.00,-0.0003
2323.00,-0.0003
2322.00,-0.0003
2321.00,-0.0003
2320.00,-0.0003
2319.00,-0.0003
2318.00,-0.0003
2317.00,-0.0003
2316.00,-0.0003
2315.00,-0.0003
2314.00,-0.0003
2313.00,-0.0003
2312.00,-0.0004
2311.00,-0.0004
2310.00,-0.0004
2309.00,-0.0004
2308.00,-0.0004
2307.00,-0.0004
2306.00,-0.0004
2305.00,-0.0004
2304.00,-0.0004
2303.00,-0.0004
2302.00,-0.0004
2301.00,-0.0004
2300.00,-0.0004
2299.00,-0.0004
2298.00,-0.0004
2297.00,-0.0004
2296.00,-0.0004
2295.00,-0.0004
2294.00,-0.0004
2293.00,-0.0004
2292.00,-0.0004
2291.00,-0.0004
2290.00,-0.0004
2289.00,-0.0004
2288.00,-0.0004
2287.00,-0.0004
2286.00,-0.0004
2285.00,-0.0004
2284.00,-0.0004
2283.00,-0.0004
2282.00,-0.0004
2281.00,-0.0004
2280.00,-0.0004
2279.00,-0.0004
2278.00,-0.0004
2277.00,-0.0004
2276.00,-0.0004
2275.00,-0.0004
2274.00,-0.0004
2273.00,-0.0004
2272.00,-0.0004
2271.00,-0.0004
2270.00,-0.0004
2269.00,-0.0004
2268.00,-0.0004
2267.00,-0.0004
2266.00,-0.0004
2265.00,-0.0004
2264.00,-0.0004
2263.00,-0.0004
2262.00,-0.0004
2261.00,-0.0004
2260.00,-0.0004
2259.00,-0.0004
2258.00,-0.0004
2257.00,-0.0004
2256.00,-0.0004
2255.00,-0.0004
2254.00,-0.0004
2253.00,-0.0004
2252.00,-0.0004
2251.00,-0.0004
2250.00,-0.0004
2249.00,-0.0004
2248.00,-0.0004
2247.00,-0.0004
2246.00,-0.0004
2245.00,-0.0004
2244.00,-0.0004
2243.00,-0.0004
2242.00,-0.0004
2241.00,-0.0004
2240.00,-0.0004
2239.00,-0.0004
2238.00,-0.0004
2237.00,-0.0004
2236.00,-0.0004
2235.00,-0.0004
2234.00,-0.0004
2233.00,-0.0004
2232.00,-0.0004
2231.00,-0.0004
2230.00,-0.0004
2229.00,-0.0004
2228.00,-0.0004
2227.00,-0.0004
2226.00,-0.0004
2225.00,-0.0004
2224.00,-0.0004
2223.00,-0.0004
2222.00,-0.0004
2221.00,-0.0004
2220.00,-0.0004
2219.00,-0.0004
2218.00,-0.0004
2217.00,-0.0004
2216.00,-0.0004
2215.00,-0.0004
2214.00,-0.0004
2213.00,-0.0004
2212.00,-0.0004
2211.00,-0.0004
2210.00,-0.0004
2209.00,-0.0004
2208.00,-0.0004
2207.00,-0.0004
2206.00,-0.0004
2205.00,-0.0004
2204.00,-0.0004
2203.00,-0.0004
2202.00,-0.0004
2201.00,-0.0004
2200.00,-0.0004
2199.00,-0.0004
2198.00,-0.0004
2197.00,-0.0004
2196.00,-0.0004
2195.00,-0.0004
2194.00,-0.0004
2193.00,-0.0004
2192.00,-0.0004
2191.00,-0.0004
2190.00,-0.0004
2189.00,-0.0004
2188.00,-0.0004
2187.00,-0.0004
2186.00,-0.0004
2185.00,-0.0004
2184.00,-0.0004
2183.00,-0.0004
2182.00,-0.0004
2181.00,-0.0004
2180.00,-0.0004
2179.00,-0.0004
2178.00,-0.0004
2177.00,-0.0004
2176.00,-0.0004
2175.00,-0.0004
2174.00,-0.0004
2173.00,-0.0004
2172.00,-0.0004
2171.00,-0.0004
2170.00,-0.0004
2169.00,-0.0004
2168.00,-0.0004
2167.00,-0.0004
2166.00,-0.0004
2165.00,-0.0004
2164.00,-0.0004
2163.00,-0.0004
2162.00,-0.0004
2161.00,-0.0004
2160.00,-0.0004
2159.00,-0.0004
2158.00,-0.0004
2157.00,-0.0004
2156.00,-0.0004
2155.00,-0.0004
2154.00,-0.0004
2153.00,-0.0004
2152.00,-0.0004
2151.00,-0.0004
2150.00,-0.0004
2149.00,-0.0004
2148.00,-0.0004
2147.00,-0.0004
2146.00,-0.0004
2145.00,-0.0004
2144.00,-0.0004
2143.00,-0.0004
2142.00,-0.0004
2141.00,-0.0004
2140.00,-0.0004
2139.00,-0.0004
2138.00,-0.0004
2137.00,-0.0004
2136.00,-0.0004
2135.00,-0.0004
2134.00,-0.0004
2133.00,-0.0004
2132.00,-0.0004
2131.00,-0.0004
2130.00,-0.0004
2129.00,-0.0004
2128.00,-0.0004
2127.00,-0.0004
2126.00,-0.0004
2125.00,-0.0004
2124.00,-0.0004
2123.00,-0.0004
2122.00,-0.0004
2121.00,-0.0004
2120.00,-0.0004
2119.00,-0.0004
2118.00,-0.0004
2117.00,-0.0004
2116.00,-0.0004
2115.00,-0.0004
2114.00,-0.0004
2113.00,-0.0004
2112.00,-0.0004
2111.00,-0.0004
2110.00,-0.0004
2109.00,-0.0004
2108.00,-0.0004
2107.00,-0.0004
2106.00,-0.0004
2105.00,-0.0004
2104.00,-0.0004
2103.00,-0.0004
2102.00,-0.0004
2101.00,-0.0004
2100.00,-0.0004
2099.00,-0.0004
2098.00,-0.0004
2097.00,-0.0004
2096.00,-0.0004
2095.00,-0.0004
2094.00,-0.0004
2093.00,-0.0004
2092.00,-0.0004
2091.00,-0.0004
2090.00,-0.0004
2089.00,-0.0004
2088.00,-0.0004
2087.00,-0.0004
2086.00,-0.0004
2085.00,-0.0004
2084.00,-0.0004
2083.00,-0.0004
2082.00,-0.0004
2081.00,-0.0004
2080.00,-0.0004
2079.00,-0.0004
2078.00,-0.0004
2077.00,-0.0004
2076.00,-0.0004
2075.00,-0.0004
2074.00,-0.0004
2073.00,-0.0004
2072.00,-0.0004
2071.00,-0.0004
2070.00,-0.0004
2069.00,-0.0004
2068.00,-0.0004
2067.00,-0.0004
2066.00,-0.0004
2065.00,-0.0004
2064.00,-0.0004
2063.00,-0.0004
2062.00,-0.0004
2061.00,-0.0004
2060.00,-0.0004
2059.00,-0.0004
2058.00,-0.0004
2057.00,-0.0004
2056.00,-0.0004
2055.00,-0.0004
2054.00,-0.0004
2053.00,-0.0004
2052.00,-0.0004
2051.00,-0.0004
2050.00,-0.0004
2049.00,-0.0004
2048.00,-0.0004
2047.00,-0.0004
2046.00,-0.0004
2045.00,-0.0004
2044.00,-0.0004
2043.00,-0.0004
2042.00,-0.0004
2041.00,-0.0004
2040.00,-0.0004
2039.00,-0.0004
2038.00,-0.0004
2037.00,-0.0004
2036.00,-0.0004
2035.00,-0.0004
2034.00,-0.0004
2033.00,-0.0004
2032.00,-0.0004
2031.00,-0.0004
2030.00,-0.0004
2029.00,-0.0004
2028.00,-0.0004
2027.00,-0.0004
2026.00,-0.0004
2025.00,-0.0004
2024.00,-0.0004
2023.00,-0.0004
2022.00,-0.0004
2021.00,-0.0004
2020.00,-0.0004
2019.00,-0.0004
2018.00,-0.0004
2017.00,-0.0004
2016.00,-0.0004
2015.00,-0.0004
2014.00,-0.0004
2013.00,-0.0004
2012.00,-0.0004
2011.00,-0.0004
2010.00,-0.0004
2009.00,-0.0004
2008.00,-0.0004
2007.00,-0.0004
2006.00,-0.0004
2005.00,-0.0004
2004.00,-0.0004
2003.00,-0.0004
2002.00,-0.0004
2001.00,-0.0004
2000.00,-0.0004
1999.00,-0.0004
1998.00,-0.0004
1997.00,-0.0004
1996.00,-0.0004
1995.00,-0.0004
1994.00,-0.0004
1993.00,-0.0004
1992.00,-0.0004
1991.00,-0.0004
1990.00,-0.0004
1989.00,-0.0004
1988.00,-0.0004
1987.00,-0.0004
1986.00,-0.0004
1985.00,-0.0004
1984.00,-0.0004
1983.00,-0.0004
1982.00,-0.0004
1981.00,-0.0004
1980.00,-0.0004
1979.00,-0.0004
1978.00,-0.0004
1977.00,-0.0004
1976.00,-0.0004
1975.00,-0.0004
1974.00,-0.0004
1973.00,-0.0004
1972.00,-0.0004
1971.00,-0.0004
1970.00,-0.0004
1969.00,-0.0004
1968.00,-0.0004
1967.00,-0.0004
1966.00,-0.0004
1965.00,-0.0004
1964.00,-0.0004
1963.00,-0.0004
1962.00,-0.0004
1961.00,-0.0004
1960.00,-0.0004
1959.00,-0.0004
1958.00,-0.0004
1957.00,-0.0004
1956.00,-0.0004
1955.00,-0.0004
1954.00,-0.0004
1953.00,-0.0004
1952.00,-0.0004
1951.00,-0.0004
1950.00,-0.0004
1949.00,-0.0004
1948.00,-0.0004
1947.00,-0.0004
1946.00,-0.0004
1945.00,-0.0004
1944.00,-0.0004
1943.00,-0.0004
1942.00,-0.0004
1941.00,-0.0004
1940.00,-0.0004
1939.00,-0.0004
1938.00,-0.0004
1937.00,-0.0004
1936.00,-0.0004
1935.00,-0.0004
1934.00,-0.0004
1933.00,-0.0004
1932.00,-0.0004
1931.00,-0.0004
1930.00,-0.0004
1929.00,-0.0004
1928.00,-0.0004
1927.00,-0.0004
1926.00,-0.0004
1925.00,-0.0004
1924.00,-0.0004
1923.00,-0.0004
1922.00,-0.0004
1921.00,-0.0004
1920.00,-0.0004
1919.00,-0.0004
1918.00,-0.0004
1917.00,-0.0004
1916.00,-0.0004
1915.00,-0.0004
1914.00,-0.0004
1913.00,-0.0004
1912.00,-0.0004
1911.00,-0.0004
1910.00,-0.0004
1909.00,-0.0004
1908.00,-0.0004
1907.00,-0.0004
1906.00,-0.0004
1905.00,-0.0004
1904.00,-0.0004
1903.00,-0.0004
1902.00,-0.0004
1901.00,-0.0004
1900.00,-0.0004
1899.00,-0.0004
1898.00,-0.0004
1897.00,-0.0004
1896.00,-0.0004
1895.00,-0.0004
1894.00,-0.0004
1893.00,-0.0004
1892.00,-0.0004
1891.00,-0.0004
1890.00,-0.0004
1889.00,-0.0004
1888.00,-0.0004
1887.00,-0.0004
1886.00,-0.0004
1885.00,-0.0004
1884.00,-0.0004
1883.00,-0.0004
1882.00,-0.0004
1881.00,-0.0004
1880.00,-0.0004
1879.00,-0.0004
1878.00,-0.0004
1877.00,-0.0004
1876.00,-0.0004
1875.00,-0.0004
1874.00,-0.0004
1873.00,-0.0004
1872.00,-0.0004
1871.00,-0.0004
1870.00,-0.0004
1869.00,-0.0004
1868.00,-0.0004
1867.00,-0.0004
1866.00,-0.0004
1865.00,-0.0004
1864.00,-0.0004
1863.00,-0.0004
1862.00,-0.0004
1861.00,-0.0004
1860.00,-0.0004
1859.00,-0.0004
1858.00,-0.0004
1857.00,-0.0004
1856.00,-0.0004
1855.00,-0.0004
1854.00,-0.0004
1853.00,-0.0004
1852.00,-0.0004
1851.00,-0.0004
1850.00,-0.0004
1849.00,-0.0004
1848.00,-0.0004
1847.00,-0.0004
1846.00,-0.0004
1845.00,-0.0004
1844.00,-0.0004
1843.00,-0.0004
1842.00,-0.0004
1841.00,-0.0004
1840.00,-0.0004
1839.00,-0.0004
1838.00,-0.0004
1837.00,-0.0004
1836.00,-0.0004
1835.00,-0.0004
1834.00,-0.0004
1833.00,-0.0004
1832.00,-0.0004
1831.00,-0.0004
1830.00,-0.0004
1829.00,-0.0004
1828.00,-0.0004
1827.00,-0.0004
1826.00,-0.0004
1825.00,-0.0004
1824.00,-0.0004
1823.00,-0.0004
1822.00,-0.0004
1821.00,-0.0004
1820.00,-0.0004
1819.00,-0.0004
1818.00,-0.0004
1817.00,-0.0004
1816.00,-0.0004
1815.00,-0.0004
1814.00,-0.0004
1813.00,-0.0004
1812.00,-0.0004
1811.00,-0.0004
1810.00,-0.0004
1809.00,-0.0004
1808.00,-0.0004
1807.00,-0.0004
1806.00,-0.0004
1805.00,-0.0004
1804.00,-0.0004
1803.00,-0.0004
1802.00,-0.0004
1801.00,-0.0004
1800.00,-0.0004
1799.00,-0.0004
1798.00,-0.0004
1797.00,-0.0004
1796.00,-0.0004
1795.00,-0.0004
1794.00,-0.0004
1793.00,-0.0004
1792.00,-0.0004
1791.00,-0.0004
1790.00,-0.0004
1789.00,-0.0004
1788.00,-0.0004
1787.00,-0.0004
1786.00,-0.0004
1785.00,-0.0004
1784.00,-0.0004
1783.00,-0.0004
1782.00,-0.0004
1781.00,-0.0004
1780.00,-0.0004
1779.00,-0.0004
1778.00,-0.0004
1777.00,-0.0004
1776.00,-0.0004
1775.00,-0.0004
1774.00,-0.0004
1773.00,-0.0004
1772.00,-0.0004
1771.00,-0.0004
1770.00,-0.0004
1769.00,-0.0004
1768.00,-0.0004
1767.00,-0.0004
1766.00,-0.0004
1765.00,-0.0004
1764.00,-0.0004
1763.00,-0.0004
1762.00,-0.0004
1761.00,-0.0004
1760.00,-0.0004
1759.00,-0.0004
1758.00,-0.0004
1757.00,-0.0004
1756.00,-0.0004
1755.00,-0.0004
1754.00,-0.0003
1753.00,-0.0003
1752.00,-0.0003
1751.00,-0.0003
1750.00,-0.0003
1749.00,-0.0003
1748.00,-0.0004
1747.00,-0.0004
1746.00,-0.0004
1745.00,-0.0004
1744.00,-0.0004
1743.00,-0.0004
1742.00,-0.0004
1741.00,-0.0004
1740.00,-0.0004
1739.00,-0.0004
1738.00,-0.0004
1737.00,-0.0004
1736.00,-0.0004
1735.00,-0.0003
1734.00,-0.0003
1733.00,-0.0003
1732.00,-0.0003
1731.00,-0.0003
1730.00,-0.0004
1729.00,-0.0004
1728.00,-0.0004
1727.00,-0.0004
1726.00,-0.0004
1725.00,-0.0004
1724.00,-0.0004
1723.00,-0.0004
1722.00,-0.0004
1721.00,-0.0004
1720.00,-0.0004
1719.00,-0.0004
1718.00,-0.0003
1717.00,-0.0003
1716.00,-0.0003
1715.00,-0.0004
1714.00,-0.0004
1713.00,-0.0004
1712.00,-0.0004
1711.00,-0.0004
1710.00,-0.0004
1709.00,-0.0004
1708.00,-0.0004
1707.00,-0.0004
1706.00,-0.0004
1705.00,-0.0004
1704.00,-0.0004
1703.00,-0.0004
1702.00,-0.0004
1701.00,-0.0004
1700.00,-0.0004
1699.00,-0.0004
1698.00,-0.0003
1697.00,-0.0003
1696.00,-0.0003
1695.00,-0.0003
1694.00,-0.0004
1693.00,-0.0004
1692.00,-0.0004
1691.00,-0.0004
1690.00,-0.0004
1689.00,-0.0004
1688.00,-0.0004
1687.00,-0.0004
1686.00,-0.0003
1685.00,-0.0003
1684.00,-0.0003
1683.00,-0.0004
1682.00,-0.0004
1681.00,-0.0004
1680.00,-0.0004
1679.00,-0.0004
1678.00,-0.0004
1677.00,-0.0004
1676.00,-0.0004
1675.00,-0.0004
1674.00,-0.0004
1673.00,-0.0004
1672.00,-0.0004
1671.00,-0.0004
1670.00,-0.0004
1669.00,-0.0004
1668.00,-0.0004
1667.00,-0.0004
1666.00,-0.0004
1665.00,-0.0004
1664.00,-0.0004
1663.00,-0.0004
1662.00,-0.0004
1661.00,-0.0004
1660.00,-0.0004
1659.00,-0.0004
1658.00,-0.0004
1657.00,-0.0004
1656.00,-0.0004
1655.00,-0.0004
1654.00,-0.0004
1653.00,-0.0004
1652.00,-0.0004
1651.00,-0.0004
1650.00,-0.0004
1649.00,-0.0004
1648.00,-0.0003
1647.00,-0.0003
1646.00,-0.0003
1645.00,-0.0004
1644.00,-0.0004
1643.00,-0.0004
1642.00,-0.0004
1641.00,-0.0004
1640.00,-0.0004
1639.00,-0.0004
1638.00,-0.0004
1637.00,-0.0004
1636.00,-0.0004
1635.00,-0.0004
1634.00,-0.0004
1633.00,-0.0004
1632.00,-0.0004
1631.00,-0.0004
1630.00,-0.0004
1629.00,-0.0004
1628.00,-0.0004
1627.00,-0.0004
1626.00,-0.0004
1625.00,-0.0004
1624.00,-0.0004
1623.00,-0.0004
1622.00,-0.0004
1621.00,-0.0004
1620.00,-0.0004
1619.00,-0.0004
1618.00,-0.0004
1617.00,-0.0004
1616.00,-0.0004
1615.00,-0.0004
1614.00,-0.0004
1613.00,-0.0004
1612.00,-0.0004
1611.00,-0.0004
1610.00,-0.0004
1609.00,-0.0004
1608.00,-0.0004
1607.00,-0.0004
1606.00,-0.0004
1605.00,-0.0004
1604.00,-0.0004
1603.00,-0.0004
1602.00,-0.0004
1601.00,-0.0004
1600.00,-0.0004
1599.00,-0.0004
1598.00,-0.0004
1597.00,-0.0004
1596.00,-0.0004
1595.00,-0.0004
1594.00,-0.0004
1593.00,-0.0004
1592.00,-0.0004
1591.00,-0.0004
1590.00,-0.0004
1589.00,-0.0004
1588.00,-0.0004
1587.00,-0.0004
1586.00,-0.0004
1585.00,-0.0004
1584.00,-0.0004
1583.00,-0.0004
1582.00,-0.0004
1581.00,-0.0004
1580.00,-0.0004
1579.00,-0.0004
1578.00,-0.0004
1577.00,-0.0004
1576.00,-0.0004
1575.00,-0.0004
1574.00,-0.0004
1573.00,-0.0004
1572.00,-0.0004
1571.00,-0.0004
1570.00,-0.0004
1569.00,-0.0004
1568.00,-0.0004
1567.00,-0.0004
1566.00,-0.0004
1565.00,-0.0004
1564.00,-0.0004
1563.00,-0.0004
1562.00,-0.0004
1561.00,-0.0004
1560.00,-0.0004
1559.00,-0.0004
1558.00,-0.0003
1557.00,-0.0003
1556.00,-0.0003
1555.00,-0.0003
1554.00,-0.0003
1553.00,-0.0003
1552.00,-0.0003
1551.00,-0.0003
1550.00,-0.0003
1549.00,-0.0003
1548.00,-0.0003
1547.00,-0.0003
1546.00,-0.0003
1545.00,-0.0003
1544.00,-0.0004
1543.00,-0.0004
1542.00,-0.0003
1541.00,-0.0003
1540.00,-0.0003
1539.00,-0.0003
1538.00,-0.0003
1537.00,-0.0003
1536.00,-0.0003
1535.00,-0.0003
1534.00,-0.0004
1533.00,-0.0004
1532.00,-0.0004
1531.00,-0.0004
1530.00,-0.0004
1529.00,-0.0004
1528.00,-0.0004
1527.00,-0.0004
1526.00,-0.0004
1525.00,-0.0003
1524.00,-0.0003
1523.00,-0.0003
1522.00,-0.0003
1521.00,-0.0004
1520.00,-0.0004
1519.00,-0.0004
1518.00,-0.0004
1517.00,-0.0004
1516.00,-0.0003
1515.00,-0.0003
1514.00,-0.0003
1513.00,-0.0003
1512.00,-0.0003
1511.00,-0.0003
1510.00,-0.0003
1509.00,-0.0003
1508.00,-0.0003
1507.00,-0.0004
1506.00,-0.0003
1505.00,-0.0003
1504.00,-0.0003
1503.00,-0.0003
1502.00,-0.0004
1501.00,-0.0004
1500.00,-0.0004
1499.00,-0.0004
1498.00,-0.0004
1497.00,-0.0004
1496.00,-0.0004
1495.00,-0.0004
1494.00,-0.0004
1493.00,-0.0004
1492.00,-0.0004
1491.00,-0.0004
1490.00,-0.0004
1489.00,-0.0004
1488.00,-0.0004
1487.00,-0.0004
1486.00,-0.0004
1485.00,-0.0004
1484.00,-0.0004
1483.00,-0.0004
1482.00,-0.0004
1481.00,-0.0004
1480.00,-0.0004
1479.00,-0.0004
1478.00,-0.0004
1477.00,-0.0004
1476.00,-0.0004
1475.00,-0.0004
1474.00,-0.0003
1473.00,-0.0003
1472.00,-0.0003
1471.00,-0.0004
1470.00,-0.0004
1469.00,-0.0004
1468.00,-0.0004
1467.00,-0.0004
1466.00,-0.0004
1465.00,-0.0004
1464.00,-0.0004
1463.00,-0.0004
1462.00,-0.0004
1461.00,-0.0004
1460.00,-0.0004
1459.00,-0.0004
1458.00,-0.0004
1457.00,-0.0004
1456.00,-0.0004
1455.00,-0.0004
1454.00,-0.0004
1453.00,-0.0004
1452.00,-0.0004
1451.00,-0.0004
1450.00,-0.0004
1449.00,-0.0004
1448.00,-0.0004
1447.00,-0.0004
1446.00,-0.0004
1445.00,-0.0004
1444.00,-0.0004
1443.00,-0.0004
1442.00,-0.0004
1441.00,-0.0004
1440.00,-0.0004
1439.00,-0.0004
1438.00,-0.0004
1437.00,-0.0004
1436.00,-0.0004
1435.00,-0.0004
1434.00,-0.0004
1433.00,-0.0004
1432.00,-0.0004
1431.00,-0.0004
1430.00,-0.0004
1429.00,-0.0004
1428.00,-0.0004
1427.00,-0.0004
1426.00,-0.0004
1425.00,-0.0004
1424.00,-0.0004
1423.00,-0.0004
1422.00,-0.0004
1421.00,-0.0004
1420.00,-0.0004
1419.00,-0.0004
1418.00,-0.0004
1417.00,-0.0004
1416.00,-0.0004
1415.00,-0.0004
1414.00,-0.0004
1413.00,-0.0004
1412.00,-0.0004
1411.00,-0.0004
1410.00,-0.0004
1409.00,-0.0004
1408.00,-0.0004
1407.00,-0.0004
1406.00,-0.0004
1405.00,-0.0004
1404.00,-0.0004
1403.00,-0.0004
1402.00,-0.0004
1401.00,-0.0004
1400.00,-0.0004
1399.00,-0.0004
1398.00,-0.0004
1397.00,-0.0004
1396.00,-0.0004
1395.00,-0.0004
1394.00,-0.0004
1393.00,-0.0004
1392.00,-0.0004
1391.00,-0.0004
1390.00,-0.0004
1389.00,-0.0004
1388.00,-0.0004
1387.00,-0.0004
1386.00,-0.0004
1385.00,-0.0004
1384.00,-0.0004
1383.00,-0.0004
1382.00,-0.0004
1381.00,-0.0004
1380.00,-0.0004
1379.00,-0.0004
1378.00,-0.0004
1377.00,-0.0004
1376.00,-0.0004
1375.00,-0.0004
1374.00,-0.0004
1373.00,-0.0004
1372.00,-0.0004
1371.00,-0.0004
1370.00,-0.0004
1369.00,-0.0004
1368.00,-0.0004
1367.00,-0.0004
1366.00,-0.0004
1365.00,-0.0004
1364.00,-0.0004
1363.00,-0.0005
1362.00,-0.0005
1361.00,-0.0004
1360.00,-0.0004
1359.00,-0.0004
1358.00,-0.0004
1357.00,-0.0004
1356.00,-0.0004
1355.00,-0.0004
1354.00,-0.0004
1353.00,-0.0004
1352.00,-0.0004
1351.00,-0.0004
1350.00,-0.0004
1349.00,-0.0004
1348.00,-0.0004
1347.00,-0.0004
1346.00,-0.0004
1345.00,-0.0004
1344.00,-0.0004
1343.00,-0.0004
1342.00,-0.0004
1341.00,-0.0004
1340.00,-0.0004
1339.00,-0.0004
1338.00,-0.0004
1337.00,-0.0004
1336.00,-0.0004
1335.00,-0.0004
1334.00,-0.0004
1333.00,-0.0004
1332.00,-0.0004
1331.00,-0.0004
1330.00,-0.0004
1329.00,-0.0004
1328.00,-0.0004
1327.00,-0.0004
1326.00,-0.0004
1325.00,-0.0004
1324.00,-0.0004
1323.00,-0.0004
1322.00,-0.0004
1321.00,-0.0004
1320.00,-0.0004
1319.00,-0.0004
1318.00,-0.0004
1317.00,-0.0004
1316.00,-0.0004
1315.00,-0.0004
1314.00,-0.0004
1313.00,-0.0004
1312.00,-0.0004
1311.00,-0.0004
1310.00,-0.0004
1309.00,-0.0004
1308.00,-0.0004
1307.00,-0.0004
1306.00,-0.0004
1305.00,-0.0004
1304.00,-0.0004
1303.00,-0.0004
1302.00,-0.0004
1301.00,-0.0004
1300.00,-0.0005
1299.00,-0.0005
1298.00,-0.0005
1297.00,-0.0005
1296.00,-0.0005
1295.00,-0.0005
1294.00,-0.0005
1293.00,-0.0005
1292.00,-0.0005
1291.00,-0.0005
1290.00,-0.0005
1289.00,-0.0005
1288.00,-0.0005
1287.00,-0.0005
1286.00,-0.0005
1285.00,-0.0005
1284.00,-0.0005
1283.00,-0.0005
1282.00,-0.0005
1281.00,-0.0005
1280.00,-0.0005
1279.00,-0.0005
1278.00,-0.0005
1277.00,-0.0004
1276.00,-0.0004
1275.00,-0.0004
1274.00,-0.0004
1273.00,-0.0004
1272.00,-0.0004
1271.00,-0.0005
1270.00,-0.0005
1269.00,-0.0005
1268.00,-0.0005
1267.00,-0.0005
1266.00,-0.0005
1265.00,-0.0005
1264.00,-0.0005
1263.00,-0.0005
1262.00,-0.0005
1261.00,-0.0005
1260.00,-0.0005
1259.00,-0.0005
1258.00,-0.0005
1257.00,-0.0005
1256.00,-0.0005
1255.00,-0.0005
1254.00,-0.0005
1253.00,-0.0005
1252.00,-0.0005
1251.00,-0.0005
1250.00,-0.0005
1249.00,-0.0005
1248.00,-0.0005
1247.00,-0.0005
1246.00,-0.0005
1245.00,-0.0005
1244.00,-0.0005
1243.00,-0.0005
1242.00,-0.0005
1241.00,-0.0005
1240.00,-0.0005
1239.00,-0.0005
1238.00,-0.0005
1237.00,-0.0005
1236.00,-0.0005
1235.00,-0.0004
1234.00,-0.0005
1233.00,-0.0005
1232.00,-0.0005
1231.00,-0.0005
1230.00,-0.0004
1229.00,-0.0004
1228.00,-0.0005
1227.00,-0.0005
1226.00,-0.0005
1225.00,-0.0005
1224.00,-0.0005
1223.00,-0.0005
1222.00,-0.0005
1221.00,-0.0005
1220.00,-0.0005
1219.00,-0.0005
1218.00,-0.0005
1217.00,-0.0005
1216.00,-0.0005
1215.00,-0.0005
1214.00,-0.0005
1213.00,-0.0005
1212.00,-0.0005
1211.00,-0.0005
1210.00,-0.0005
1209.00,-0.0005
1208.00,-0.0005
1207.00,-0.0005
1206.00,-0.0005
1205.00,-0.0005
1204.00,-0.0005
1203.00,-0.0005
1202.00,-0.0005
1201.00,-0.0005
1200.00,-0.0005
1199.00,-0.0005
1198.00,-0.0005
1197.00,-0.0005
1196.00,-0.0005
1195.00,-0.0005
1194.00,-0.0005
1193.00,-0.0005
1192.00,-0.0005
1191.00,-0.0005
1190.00,-0.0005
1189.00,-0.0005
1188.00,-0.0005
1187.00,-0.0005
1186.00,-0.0005
1185.00,-0.0005
1184.00,-0.0005
1183.00,-0.0005
1182.00,-0.0005
1181.00,-0.0005
1180.00,-0.0005
1179.00,-0.0005
1178.00,-0.0005
1177.00,-0.0005
1176.00,-0.0005
1175.00,-0.0005
1174.00,-0.0005
1173.00,-0.0005
1172.00,-0.0005
1171.00,-0.0005
1170.00,-0.0005
1169.00,-0.0005
1168.00,-0.0005
1167.00,-0.0005
1166.00,-0.0005
1165.00,-0.0005
1164.00,-0.0005
1163.00,-0.0005
1162.00,-0.0005
1161.00,-0.0005
1160.00,-0.0005
1159.00,-0.0005
1158.00,-0.0005
1157.00,-0.0005
1156.00,-0.0005
1155.00,-0.0005
1154.00,-0.0005
1153.00,-0.0005
1152.00,-0.0005
1151.00,-0.0005
1150.00,-0.0005
1149.00,-0.0005
1148.00,-0.0005
1147.00,-0.0005
1146.00,-0.0005
1145.00,-0.0005
1144.00,-0.0005
1143.00,-0.0005
1142.00,-0.0005
1141.00,-0.0005
1140.00,-0.0005
1139.00,-0.0005
1138.00,-0.0005
1137.00,-0.0005
1136.00,-0.0005
1135.00,-0.0005
1134.00,-0.0005
1133.00,-0.0005
1132.00,-0.0005
1131.00,-0.0005
1130.00,-0.0005
1129.00,-0.0005
1128.00,-0.0005
1127.00,-0.0005
1126.00,-0.0005
1125.00,-0.0005
1124.00,-0.0005
1123.00,-0.0005
1122.00,-0.0005
1121.00,-0.0005
1120.00,-0.0005
1119.00,-0.0005
1118.00,-0.0006
1117.00,-0.0006
1116.00,-0.0005
1115.00,-0.0005
1114.00,-0.0005
1113.00,-0.0005
1112.00,-0.0005
1111.00,-0.0005
1110.00,-0.0005
1109.00,-0.0005
1108.00,-0.0005
1107.00,-0.0005
1106.00,-0.0005
1105.00,-0.0005
1104.00,-0.0005
1103.00,-0.0005
1102.00,-0.0005
1101.00,-0.0005
1100.00,-0.0005
1099.00,-0.0005
1098.00,-0.0005
1097.00,-0.0005
1096.00,-0.0005
1095.00,-0.0005
1094.00,-0.0005
1093.00,-0.0005
1092.00,-0.0005
1091.00,-0.0005
1090.00,-0.0005
1089.00,-0.0005
1088.00,-0.0005
1087.00,-0.0005
1086.00,-0.0005
1085.00,-0.0005
1084.00,-0.0005
1083.00,-0.0005
1082.00,-0.0005
1081.00,-0.0005
1080.00,-0.0005
1079.00,-0.0005
1078.00,-0.0005
1077.00,-0.0005
1076.00,-0.0005
1075.00,-0.0005
1074.00,-0.0005
1073.00,-0.0005
1072.00,-0.0005
1071.00,-0.0005
1070.00,-0.0005
1069.00,-0.0005
1068.00,-0.0005
1067.00,-0.0005
1066.00,-0.0005
1065.00,-0.0004
1064.00,-0.0004
1063.00,-0.0004
1062.00,-0.0004
1061.00,-0.0005
1060.00,-0.0005
1059.00,-0.0005
1058.00,-0.0005
1057.00,-0.0004
1056.00,-0.0004
1055.00,-0.0005
1054.00,-0.0005
1053.00,-0.0005
1052.00,-0.0005
1051.00,-0.0005
1050.00,-0.0005
1049.00,-0.0005
1048.00,-0.0005
1047.00,-0.0004
1046.00,-0.0004
1045.00,-0.0004
1044.00,-0.0004
1043.00,-0.0004
1042.00,-0.0005
1041.00,-0.0005
1040.00,-0.0005
1039.00,-0.0004
1038.00,-0.0004
1037.00,-0.0004
1036.00,-0.0004
1035.00,-0.0005
1034.00,-0.0005
1033.00,-0.0005
1032.00,-0.0005
1031.00,-0.0005
1030.00,-0.0005
1029.00,-0.0004
1028.00,-0.0004
1027.00,-0.0005
1026.00,-0.0005
1025.00,-0.0005
1024.00,-0.0005
1023.00,-0.0005
1022.00,-0.0005
1021.00,-0.0005
1020.00,-0.0004
1019.00,-0.0004
1018.00,-0.0004
1017.00,-0.0004
1016.00,-0.0004
1015.00,-0.0004
1014.00,-0.0004
1013.00,-0.0004
1012.00,-0.0004
1011.00,-0.0004
1010.00,-0.0004
1009.00,-0.0004
1008.00,-0.0004
1007.00,-0.0004
1006.00,-0.0004
1005.00,-0.0004
1004.00,-0.0004
1003.00,-0.0004
1002.00,-0.0004
1001.00,-0.0004
1000.00,-0.0004
999.00,-0.0004
998.00,-0.0004
997.00,-0.0004
996.00,-0.0004
995.00,-0.0004
994.00,-0.0004
993.00,-0.0004
992.00,-0.0004
991.00,-0.0004
990.00,-0.0004
989.00,-0.0004
988.00,-0.0004
987.00,-0.0004
986.00,-0.0004
985.00,-0.0004
984.00,-0.0004
983.00,-0.0004
982.00,-0.0004
981.00,-0.0004
980.00,-0.0004
979.00,-0.0004
978.00,-0.0004
977.00,-0.0004
976.00,-0.0004
975.00,-0.0004
974.00,-0.0004
973.00,-0.0004
972.00,-0.0004
971.00,-0.0004
970.00,-0.0004
969.00,-0.0004
968.00,-0.0004
967.00,-0.0004
966.00,-0.0004
965.00,-0.0004
964.00,-0.0004
963.00,-0.0005
962.00,-0.0005
961.00,-0.0005
960.00,-0.0005
959.00,-0.0005
958.00,-0.0005
957.00,-0.0005
956.00,-0.0005
955.00,-0.0005
954.00,-0.0005
953.00,-0.0005
952.00,-0.0005
951.00,-0.0005
950.00,-0.0005
949.00,-0.0005
948.00,-0.0005
947.00,-0.0005
946.00,-0.0005
945.00,-0.0005
944.00,-0.0005
943.00,-0.0005
942.00,-0.0005
941.00,-0.0005
940.00,-0.0005
939.00,-0.0004
938.00,-0.0004
937.00,-0.0004
936.00,-0.0005
935.00,-0.0005
934.00,-0.0005
933.00,-0.0005
932.00,-0.0005
931.00,-0.0005
930.00,-0.0005
929.00,-0.0005
928.00,-0.0004
927.00,-0.0004
926.00,-0.0004
925.00,-0.0005
924.00,-0.0005
923.00,-0.0005
922.00,-0.0005
921.00,-0.0005
920.00,-0.0005
919.00,-0.0005
918.00,-0.0005
917.00,-0.0005
916.00,-0.0005
915.00,-0.0005
914.00,-0.0005
913.00,-0.0005
912.00,-0.0005
911.00,-0.0005
910.00,-0.0005
909.00,-0.0005
908.00,-0.0005
907.00,-0.0005
906.00,-0.0005
905.00,-0.0005
904.00,-0.0005
903.00,-0.0004
902.00,-0.0004
901.00,-0.0004
900.00,-0.0004
899.00,-0.0005
898.00,-0.0005
897.00,-0.0005
896.00,-0.0005
895.00,-0.0005
894.00,-0.0005
893.00,-0.0005
892.00,-0.0005
891.00,-0.0005
890.00,-0.0005
889.00,-0.0005
888.00,-0.0005
887.00,-0.0005
886.00,-0.0005
885.00,-0.0005
884.00,-0.0005
883.00,-0.0005
882.00,-0.0005
881.00,-0.0005
880.00,-0.0005
879.00,-0.0004
878.00,-0.0005
877.00,-0.0005
876.00,-0.0005
875.00,-0.0005
874.00,-0.0005
873.00,-0.0005
872.00,-0.0005
871.00,-0.0005
870.00,-0.0005
869.00,-0.0005
868.00,-0.0005
867.00,-0.0004
866.00,-0.0004
865.00,-0.0005
864.00,-0.0004
863.00,-0.0004
862.00,-0.0004
861.00,-0.0004
860.00,-0.0004
859.00,-0.0004
858.00,-0.0004
857.00,-0.0004
856.00,-0.0004
855.00,-0.0004
854.00,-0.0004
853.00,-0.0005
852.00,-0.0005
851.00,-0.0004
850.00,-0.0004
849.00,-0.0004
848.00,-0.0004
847.00,-0.0004
846.00,-0.0004
845.00,-0.0004
844.00,-0.0004
843.00,-0.0004
842.00,-0.0005
841.00,-0.0005
840.00,-0.0004
839.00,-0.0004
838.00,-0.0004
837.00,-0.0004
836.00,-0.0004
835.00,-0.0005
834.00,-0.0005
833.00,-0.0004
832.00,-0.0004
831.00,-0.0004
830.00,-0.0004
829.00,-0.0004
828.00,-0.0004
827.00,-0.0004
826.00,-0.0005
825.00,-0.0005
824.00,-0.0005
823.00,-0.0004
822.00,-0.0004
821.00,-0.0005
820.00,-0.0005
819.00,-0.0004
818.00,-0.0004
817.00,-0.0004
816.00,-0.0004
815.00,-0.0004
814.00,-0.0005
813.00,-0.0005
812.00,-0.0005
811.00,-0.0005
810.00,-0.0005
809.00,-0.0005
808.00,-0.0005
807.00,-0.0005
806.00,-0.0005
805.00,-0.0005
804.00,-0.0004
803.00,-0.0004
802.00,-0.0004
801.00,-0.0004
800.00,-0.0004
799.00,-0.0004
798.00,-0.0004
797.00,-0.0004
796.00,-0.0004
795.00,-0.0004
794.00,-0.0004
793.00,-0.0004
792.00,-0.0005
791.00,-0.0005
790.00,-0.0005
789.00,-0.0004
788.00,-0.0004
787.00,-0.0004
786.00,-0.0004
785.00,-0.0004
784.00,-0.0004
783.00,-0.0004
782.00,-0.0004
781.00,-0.0004
780.00,-0.0004
779.00,-0.0004
778.00,-0.0004
777.00,-0.0004
776.00,-0.0004
775.00,-0.0004
774.00,-0.0005
773.00,-0.0004
772.00,-0.0004
771.00,-0.0004
770.00,-0.0004
769.00,-0.0004
768.00,-0.0004
767.00,-0.0004
766.00,-0.0005
765.00,-0.0005
764.00,-0.0005
763.00,-0.0004
762.00,-0.0004
761.00,-0.0004
760.00,-0.0004
759.00,-0.0004
758.00,-0.0004
757.00,-0.0004
756.00,-0.0004
755.00,-0.0004
754.00,-0.0004
753.00,-0.0004
752.00,-0.0004
751.00,-0.0004
750.00,-0.0004
749.00,-0.0004
748.00,-0.0004
747.00,-0.0004
746.00,-0.0004
745.00,-0.0004
744.00,-0.0004
743.00,-0.0004
742.00,-0.0004
741.00,-0.0004
740.00,-0.0004
739.00,-0.0004
738.00,-0.0004
737.00,-0.0004
736.00,-0.0004
735.00,-0.0004
734.00,-0.0004
733.00,-0.0004
732.00,-0.0004
731.00,-0.0004
730.00,-0.0004
729.00,-0.0004
728.00,-0.0004
727.00,-0.0004
726.00,-0.0004
725.00,-0.0004
724.00,-0.0004
723.00,-0.0004
722.00,-0.0004
721.00,-0.0004
720.00,-0.0004
719.00,-0.0004
718.00,-0.0004
717.00,-0.0004
716.00,-0.0004
715.00,-0.0005
714.00,-0.0005
713.00,-0.0004
712.00,-0.0004
711.00,-0.0004
710.00,-0.0004
709.00,-0.0004
708.00,-0.0004
707.00,-0.0004
706.00,-0.0004
705.00,-0.0004
704.00,-0.0005
703.00,-0.0004
702.00,-0.0004
701.00,-0.0005
700.00,-0.0005
699.00,-0.0005
698.00,-0.0005
697.00,-0.0004
696.00,-0.0004
695.00,-0.0004
694.00,-0.0004
693.00,-0.0004
692.00,-0.0004
691.00,-0.0004
690.00,-0.0004
689.00,-0.0004
688.00,-0.0005
687.00,-0.0005
686.00,-0.0005
685.00,-0.0006
684.00,-0.0006
683.00,-0.0006
682.00,-0.0005
681.00,-0.0005
680.00,-0.0005
679.00,-0.0005
678.00,-0.0005
677.00,-0.0005
676.00,-0.0005
675.00,-0.0005
674.00,-0.0005
673.00,-0.0005
672.00,-0.0005
671.00,-0.0006
670.00,-0.0007
669.00,-0.0009
668.00,-0.0010
667.00,-0.0010
666.00,-0.0008
665.00,-0.0007
664.00,-0.0006
663.00,-0.0005
662.00,-0.0005
661.00,-0.0005
660.00,-0.0005
659.00,-0.0005
658.00,-0.0005
657.00,-0.0005
656.00,-0.0006
655.00,-0.0006
654.00,-0.0006
653.00,-0.0006
652.00,-0.0006
651.00,-0.0006
650.00,-0.0006
649.00,-0.0005
648.00,-0.0005
647.00,-0.0005
646.00,-0.0005
645.00,-0.0005
644.00,-0.0006
643.00,-0.0005
642.00,-0.0005
641.00,-0.0005
640.00,-0.0005
639.00,-0.0005
638.00,-0.0005
637.00,-0.0005
636.00,-0.0005
635.00,-0.0005
634.00,-0.0005
633.00,-0.0005
632.00,-0.0005
631.00,-0.0005
630.00,-0.0005
629.00,-0.0005
628.00,-0.0005
627.00,-0.0004
626.00,-0.0004
625.00,-0.0004
624.00,-0.0004
623.00,-0.0004
622.00,-0.0005
621.00,-0.0005
620.00,-0.0005
619.00,-0.0005
618.00,-0.0005
617.00,-0.0005
616.00,-0.0004
615.00,-0.0004
614.00,-0.0005
613.00,-0.0005
612.00,-0.0005
611.00,-0.0004
610.00,-0.0004
609.00,-0.0005
608.00,-0.0005
607.00,-0.0005
606.00,-0.0005
605.00,-0.0005
604.00,-0.0006
603.00,-0.0006
602.00,-0.0006
601.00,-0.0005
600.00,-0.0004
599.00,-0.0003
598.00,-0.0004
597.00,-0.0004
596.00,-0.0005
595.00,-0.0006
594.00,-0.0007
593.00,-0.0006
592.00,-0.0006
591.00,-0.0005
590.00,-0.0005
589.00,-0.0005
588.00,-0.0005
587.00,-0.0005
586.00,-0.0005
585.00,-0.0005
584.00,-0.0005
583.00,-0.0005
582.00,-0.0006
581.00,-0.0006
580.00,-0.0005
579.00,-0.0005
578.00,-0.0005
577.00,-0.0005
576.00,-0.0005
575.00,-0.0005
574.00,-0.0005
573.00,-0.0005
572.00,-0.0005
571.00,-0.0005
570.00,-0.0004
569.00,-0.0004
568.00,-0.0004
567.00,-0.0004
566.00,-0.0005
565.00,-0.0005
564.00,-0.0005
563.00,-0.0006
562.00,-0.0006
561.00,-0.0005
560.00,-0.0005
559.00,-0.0005
558.00,-0.0005
557.00,-0.0006
556.00,-0.0006
555.00,-0.0006
554.00,-0.0006
553.00,-0.0006
552.00,-0.0005
551.00,-0.0004
550.00,-0.0003
549.00,-0.0003
548.00,-0.0003
547.00,-0.0004
546.00,-0.0005
545.00,-0.0005
544.00,-0.0005
543.00,-0.0004
542.00,-0.0005
541.00,-0.0005
540.00,-0.0006
539.00,-0.0006
538.00,-0.0006
537.00,-0.0006
536.00,-0.0005
535.00,-0.0005
534.00,-0.0006
533.00,-0.0006
532.00,-0.0006
531.00,-0.0006
530.00,-0.0005
529.00,-0.0005
528.00,-0.0005
527.00,-0.0005
526.00,-0.0005
525.00,-0.0005
524.00,-0.0005
523.00,-0.0005
522.00,-0.0006
521.00,-0.0006
520.00,-0.0006
519.00,-0.0006
518.00,-0.0006
517.00,-0.0006
516.00,-0.0005
515.00,-0.0005
514.00,-0.0005
513.00,-0.0005
512.00,-0.0006
511.00,-0.0007
510.00,-0.0007
509.00,-0.0008
508.00,-0.0007
507.00,-0.0007
506.00,-0.0006
505.00,-0.0006
504.00,-0.0006
503.00,-0.0006
502.00,-0.0006
501.00,-0.0007
500.00,-0.0008
