Created as New Dataset,Sample 041 By Analyst Date Wednesday, April 02 2025
cm-1,A
4000.00,-0.1168
3998.00,-0.1168
3996.00,-0.1168
3994.00,-0.1168
3992.00,-0.1168
3990.00,-0.1168
3988.00,-0.1167
3986.00,-0.1167
3984.00,-0.1166
3982.00,-0.1166
3980.00,-0.1166
3978.00,-0.1165
3976.00,-0.1164
3974.00,-0.1164
3972.00,-0.1164
3970.00,-0.1164
3968.00,-0.1164
3966.00,-0.1164
3964.00,-0.1164
3962.00,-0.1164
3960.00,-0.1164
3958.00,-0.1164
3956.00,-0.1164
3954.00,-0.1163
3952.00,-0.1162
3950.00,-0.1162
3948.00,-0.1161
3946.00,-0.1160
3944.00,-0.1160
3942.00,-0.1161
3940.00,-0.1161
3938.00,-0.1161
3936.00,-0.1160
3934.00,-0.1159
3932.00,-0.1159
3930.00,-0.1160
3928.00,-0.1159
3926.00,-0.1158
3924.00,-0.1159
3922.00,-0.1158
3920.00,-0.1156
3918.00,-0.1156
3916.00,-0.1156
3914.00,-0.1157
3912.00,-0.1158
3910.00,-0.1158
3908.00,-0.1157
3906.00,-0.1154
3904.00,-0.1151
3902.00,-0.1149
3900.00,-0.1149
3898.00,-0.1151
3896.00,-0.1153
3894.00,-0.1154
3892.00,-0.1155
3890.00,-0.1155
3888.00,-0.1152
3886.00,-0.1149
3884.00,-0.1150
3882.00,-0.1149
3880.00,-0.1150
3878.00,-0.1152
3876.00,-0.1150
3874.00,-0.1151
3872.00,-0.1151
3870.00,-0.1147
3868.00,-0.1148
3866.00,-0.1146
3864.00,-0.1147
3862.00,-0.1150
3860.00,-0.1149
3858.00,-0.1151
3856.00,-0.1152
3854.00,-0.1147
3852.00,-0.1143
3850.00,-0.1142
3848.00,-0.1144
3846.00,-0.1147
3844.00,-0.1148
3842.00,-0.1147
3840.00,-0.1146
3838.00,-0.1143
3836.00,-0.1142
3834.00,-0.1143
3832.00,-0.1144
3830.00,-0.1146
3828.00,-0.1147
3826.00,-0.1146
3824.00,-0.1145
3822.00,-0.1141
3820.00,-0.1142
3818.00,-0.1141
3816.00,-0.1140
3814.00,-0.1144
3812.00,-0.1145
3810.00,-0.1147
3808.00,-0.1146
3806.00,-0.1144
3804.00,-0.1143
3802.00,-0.1140
3800.00,-0.1141
3798.00,-0.1141
3796.00,-0.1143
3794.00,-0.1147
3792.00,-0.1148
3790.00,-0.1149
3788.00,-0.1149
3786.00,-0.1149
3784.00,-0.1148
3782.00,-0.1147
3780.00,-0.1146
3778.00,-0.1148
3776.00,-0.1149
3774.00,-0.1148
3772.00,-0.1148
3770.00,-0.1146
3768.00,-0.1146
3766.00,-0.1144
3764.00,-0.1145
3762.00,-0.1144
3760.00,-0.1142
3758.00,-0.1142
3756.00,-0.1141
3754.00,-0.1138
3752.00,-0.1134
3750.00,-0.1130
3748.00,-0.1128
3746.00,-0.1128
3744.00,-0.1128
3742.00,-0.1130
3740.00,-0.1128
3738.00,-0.1127
3736.00,-0.1127
3734.00,-0.1129
3732.00,-0.1130
3730.00,-0.1131
3728.00,-0.1132
3726.00,-0.1133
3724.00,-0.1135
3722.00,-0.1135
3720.00,-0.1137
3718.00,-0.1138
3716.00,-0.1137
3714.00,-0.1135
3712.00,-0.1133
3710.00,-0.1134
3708.00,-0.1136
3706.00,-0.1139
3704.00,-0.1141
3702.00,-0.1144
3700.00,-0.1146
3698.00,-0.1146
3696.00,-0.1146
3694.00,-0.1146
3692.00,-0.1145
3690.00,-0.1146
3688.00,-0.1145
3686.00,-0.1146
3684.00,-0.1149
3682.00,-0.1151
3680.00,-0.1151
3678.00,-0.1149
3676.00,-0.1144
3674.00,-0.1143
3672.00,-0.1141
3670.00,-0.1141
3668.00,-0.1147
3666.00,-0.1149
3664.00,-0.1151
3662.00,-0.1153
3660.00,-0.1153
3658.00,-0.1151
3656.00,-0.1148
3654.00,-0.1145
3652.00,-0.1139
3650.00,-0.1136
3648.00,-0.1136
3646.00,-0.1139
3644.00,-0.1142
3642.00,-0.1146
3640.00,-0.1148
3638.00,-0.1148
3636.00,-0.1147
3634.00,-0.1145
3632.00,-0.1144
3630.00,-0.1140
3628.00,-0.1140
3626.00,-0.1141
3624.00,-0.1142
3622.00,-0.1145
3620.00,-0.1146
3618.00,-0.1146
3616.00,-0.1144
3614.00,-0.1142
3612.00,-0.1143
3610.00,-0.1143
3608.00,-0.1143
3606.00,-0.1146
3604.00,-0.1147
3602.00,-0.1148
3600.00,-0.1149
3598.00,-0.1148
3596.00,-0.1148
3594.00,-0.1148
3592.00,-0.1148
3590.00,-0.1146
3588.00,-0.1146
3586.00,-0.1147
3584.00,-0.1148
3582.00,-0.1150
3580.00,-0.1152
3578.00,-0.1154
3576.00,-0.1154
3574.00,-0.1154
3572.00,-0.1152
3570.00,-0.1149
3568.00,-0.1147
3566.00,-0.1148
3564.00,-0.1149
3562.00,-0.1151
3560.00,-0.1154
3558.00,-0.1156
3556.00,-0.1157
3554.00,-0.1157
3552.00,-0.1157
3550.00,-0.1156
3548.00,-0.1154
3546.00,-0.1154
3544.00,-0.1155
3542.00,-0.1155
3540.00,-0.1156
3538.00,-0.1156
3536.00,-0.1157
3534.00,-0.1157
3532.00,-0.1156
3530.00,-0.1156
3528.00,-0.1156
3526.00,-0.1155
3524.00,-0.1155
3522.00,-0.1157
3520.00,-0.1157
3518.00,-0.1157
3516.00,-0.1157
3514.00,-0.1157
3512.00,-0.1156
3510.00,-0.1156
3508.00,-0.1155
3506.00,-0.1154
3504.00,-0.1154
3502.00,-0.1154
3500.00,-0.1155
3498.00,-0.1155
3496.00,-0.1156
3494.00,-0.1157
3492.00,-0.1157
3490.00,-0.1157
3488.00,-0.1157
3486.00,-0.1157
3484.00,-0.1157
3482.00,-0.1157
3480.00,-0.1157
3478.00,-0.1158
3476.00,-0.1158
3474.00,-0.1159
3472.00,-0.1159
3470.00,-0.1159
3468.00,-0.1159
3466.00,-0.1160
3464.00,-0.1161
3462.00,-0.1162
3460.00,-0.1163
3458.00,-0.1164
3456.00,-0.1164
3454.00,-0.1164
3452.00,-0.1164
3450.00,-0.1164
3448.00,-0.1164
3446.00,-0.1164
3444.00,-0.1165
3442.00,-0.1165
3440.00,-0.1166
3438.00,-0.1166
3436.00,-0.1166
3434.00,-0.1167
3432.00,-0.1167
3430.00,-0.1168
3428.00,-0.1168
3426.00,-0.1168
3424.00,-0.1167
3422.00,-0.1167
3420.00,-0.1166
3418.00,-0.1165
3416.00,-0.1164
3414.00,-0.1163
3412.00,-0.1162
3410.00,-0.1162
3408.00,-0.1161
3406.00,-0.1160
3404.00,-0.1159
3402.00,-0.1158
3400.00,-0.1157
3398.00,-0.1157
3396.00,-0.1156
3394.00,-0.1155
3392.00,-0.1155
3390.00,-0.1154
3388.00,-0.1154
3386.00,-0.1153
3384.00,-0.1153
3382.00,-0.1152
3380.00,-0.1152
3378.00,-0.1151
3376.00,-0.1151
3374.00,-0.1151
3372.00,-0.1151
3370.00,-0.1150
3368.00,-0.1150
3366.00,-0.1151
3364.00,-0.1151
3362.00,-0.1151
3360.00,-0.1151
3358.00,-0.1151
3356.00,-0.1150
3354.00,-0.1150
3352.00,-0.1150
3350.00,-0.1150
3348.00,-0.1150
3346.00,-0.1151
3344.00,-0.1151
3342.00,-0.1151
3340.00,-0.1151
3338.00,-0.1152
3336.00,-0.1153
3334.00,-0.1153
3332.00,-0.1153
3330.00,-0.1154
3328.00,-0.1154
3326.00,-0.1153
3324.00,-0.1153
3322.00,-0.1154
3320.00,-0.1154
3318.00,-0.1154
3316.00,-0.1155
3314.00,-0.1155
3312.00,-0.1156
3310.00,-0.1157
3308.00,-0.1158
3306.00,-0.1160
3304.00,-0.1162
3302.00,-0.1163
3300.00,-0.1163
3298.00,-0.1162
3296.00,-0.1160
3294.00,-0.1158
3292.00,-0.1156
3290.00,-0.1155
3288.00,-0.1154
3286.00,-0.1153
3284.00,-0.1152
3282.00,-0.1151
3280.00,-0.1151
3278.00,-0.1150
3276.00,-0.1149
3274.00,-0.1149
3272.00,-0.1149
3270.00,-0.1149
3268.00,-0.1149
3266.00,-0.1149
3264.00,-0.1148
3262.00,-0.1148
3260.00,-0.1147
3258.00,-0.1147
3256.00,-0.1147
3254.00,-0.1147
3252.00,-0.1147
3250.00,-0.1148
3248.00,-0.1148
3246.00,-0.1148
3244.00,-0.1149
3242.00,-0.1149
3240.00,-0.1149
3238.00,-0.1149
3236.00,-0.1149
3234.00,-0.1149
3232.00,-0.1149
3230.00,-0.1149
3228.00,-0.1149
3226.00,-0.1149
3224.00,-0.1150
3222.00,-0.1150
3220.00,-0.1150
3218.00,-0.1151
3216.00,-0.1151
3214.00,-0.1152
3212.00,-0.1153
3210.00,-0.1153
3208.00,-0.1154
3206.00,-0.1154
3204.00,-0.1154
3202.00,-0.1154
3200.00,-0.1154
3198.00,-0.1154
3196.00,-0.1154
3194.00,-0.1154
3192.00,-0.1154
3190.00,-0.1154
3188.00,-0.1155
3186.00,-0.1155
3184.00,-0.1156
3182.00,-0.1156
3180.00,-0.1156
3178.00,-0.1157
3176.00,-0.1157
3174.00,-0.1157
3172.00,-0.1156
3170.00,-0.1156
3168.00,-0.1156
3166.00,-0.1155
3164.00,-0.1155
3162.00,-0.1156
3160.00,-0.1156
3158.00,-0.1156
3156.00,-0.1156
3154.00,-0.1156
3152.00,-0.1156
3150.00,-0.1156
3148.00,-0.1157
3146.00,-0.1157
3144.00,-0.1157
3142.00,-0.1156
3140.00,-0.1156
3138.00,-0.1156
3136.00,-0.1156
3134.00,-0.1156
3132.00,-0.1156
3130.00,-0.1156
3128.00,-0.1156
3126.00,-0.1156
3124.00,-0.1157
3122.00,-0.1157
3120.00,-0.1157
3118.00,-0.1158
3116.00,-0.1158
3114.00,-0.1159
3112.00,-0.1160
3110.00,-0.1161
3108.00,-0.1161
3106.00,-0.1161
3104.00,-0.1161
3102.00,-0.1161
3100.00,-0.1161
3098.00,-0.1161
3096.00,-0.1162
3094.00,-0.1162
3092.00,-0.1163
3090.00,-0.1163
3088.00,-0.1164
3086.00,-0.1165
3084.00,-0.1166
3082.00,-0.1167
3080.00,-0.1167
3078.00,-0.1168
3076.00,-0.1168
3074.00,-0.1169
3072.00,-0.1169
3070.00,-0.1168
3068.00,-0.1168
3066.00,-0.1168
3064.00,-0.1168
3062.00,-0.1168
3060.00,-0.1168
3058.00,-0.1168
3056.00,-0.1168
3054.00,-0.1168
3052.00,-0.1168
3050.00,-0.1168
3048.00,-0.1168
3046.00,-0.1168
3044.00,-0.1167
3042.00,-0.1167
3040.00,-0.1167
3038.00,-0.1167
3036.00,-0.1167
3034.00,-0.1166
3032.00,-0.1166
3030.00,-0.1166
3028.00,-0.1166
3026.00,-0.1165
3024.00,-0.1164
3022.00,-0.1163
3020.00,-0.1161
3018.00,-0.1159
3016.00,-0.1156
3014.00,-0.1152
3012.00,-0.1148
3010.00,-0.1144
3008.00,-0.1140
3006.00,-0.1136
3004.00,-0.1131
3002.00,-0.1126
3000.00,-0.1120
2998.00,-0.1114
2996.00,-0.1108
2994.00,-0.1102
2992.00,-0.1094
2990.00,-0.1087
2988.00,-0.1087
2986.00,-0.1091
2984.00,-0.1092
2982.00,-0.1092
2980.00,-0.1093
2978.00,-0.1095
2976.00,-0.1100
2974.00,-0.1105
2972.00,-0.1110
2970.00,-0.1116
2968.00,-0.1122
2966.00,-0.1127
2964.00,-0.1131
2962.00,-0.1133
2960.00,-0.1135
2958.00,-0.1135
2956.00,-0.1134
2954.00,-0.1134
2952.00,-0.1133
2950.00,-0.1133
2948.00,-0.1132
2946.00,-0.1132
2944.00,-0.1132
2942.00,-0.1134
2940.00,-0.1136
2938.00,-0.1138
2936.00,-0.1139
2934.00,-0.1141
2932.00,-0.1142
2930.00,-0.1145
2928.00,-0.1147
2926.00,-0.1149
2924.00,-0.1150
2922.00,-0.1150
2920.00,-0.1149
2918.00,-0.1149
2916.00,-0.1147
2914.00,-0.1146
2912.00,-0.1145
2910.00,-0.1143
2908.00,-0.1141
2906.00,-0.1139
2904.00,-0.1137
2902.00,-0.1135
2900.00,-0.1132
2898.00,-0.1129
2896.00,-0.1125
2894.00,-0.1121
2892.00,-0.1116
2890.00,-0.1112
2888.00,-0.1107
2886.00,-0.1102
2884.00,-0.1098
2882.00,-0.1094
2880.00,-0.1091
2878.00,-0.1087
2876.00,-0.1084
2874.00,-0.1080
2872.00,-0.1077
2870.00,-0.1076
2868.00,-0.1079
2866.00,-0.1085
2864.00,-0.1090
2862.00,-0.1094
2860.00,-0.1098
2858.00,-0.1101
2856.00,-0.1104
2854.00,-0.1108
2852.00,-0.1112
2850.00,-0.1116
2848.00,-0.1121
2846.00,-0.1125
2844.00,-0.1129
2842.00,-0.1134
2840.00,-0.1137
2838.00,-0.1141
2836.00,-0.1143
2834.00,-0.1146
2832.00,-0.1148
2830.00,-0.1149
2828.00,-0.1150
2826.00,-0.1150
2824.00,-0.1150
2822.00,-0.1150
2820.00,-0.1150
2818.00,-0.1150
2816.00,-0.1151
2814.00,-0.1151
2812.00,-0.1152
2810.00,-0.1153
2808.00,-0.1153
2806.00,-0.1154
2804.00,-0.1154
2802.00,-0.1154
2800.00,-0.1155
2798.00,-0.1155
2796.00,-0.1155
2794.00,-0.1155
2792.00,-0.1154
2790.00,-0.1154
2788.00,-0.1154
2786.00,-0.1155
2784.00,-0.1155
2782.00,-0.1156
2780.00,-0.1156
2778.00,-0.1156
2776.00,-0.1157
2774.00,-0.1157
2772.00,-0.1158
2770.00,-0.1158
2768.00,-0.1158
2766.00,-0.1158
2764.00,-0.1158
2762.00,-0.1158
2760.00,-0.1157
2758.00,-0.1157
2756.00,-0.1157
2754.00,-0.1157
2752.00,-0.1158
2750.00,-0.1158
2748.00,-0.1158
2746.00,-0.1159
2744.00,-0.1159
2742.00,-0.1160
2740.00,-0.1160
2738.00,-0.1161
2736.00,-0.1161
2734.00,-0.1161
2732.00,-0.1160
2730.00,-0.1159
2728.00,-0.1159
2726.00,-0.1158
2724.00,-0.1158
2722.00,-0.1157
2720.00,-0.1157
2718.00,-0.1157
2716.00,-0.1157
2714.00,-0.1157
2712.00,-0.1157
2710.00,-0.1157
2708.00,-0.1157
2706.00,-0.1157
2704.00,-0.1157
2702.00,-0.1157
2700.00,-0.1156
2698.00,-0.1156
2696.00,-0.1155
2694.00,-0.1155
2692.00,-0.1155
2690.00,-0.1155
2688.00,-0.1155
2686.00,-0.1156
2684.00,-0.1156
2682.00,-0.1157
2680.00,-0.1157
2678.00,-0.1158
2676.00,-0.1158
2674.00,-0.1158
2672.00,-0.1158
2670.00,-0.1158
2668.00,-0.1157
2666.00,-0.1157
2664.00,-0.1156
2662.00,-0.1155
2660.00,-0.1154
2658.00,-0.1154
2656.00,-0.1154
2654.00,-0.1153
2652.00,-0.1153
2650.00,-0.1153
2648.00,-0.1153
2646.00,-0.1153
2644.00,-0.1153
2642.00,-0.1153
2640.00,-0.1152
2638.00,-0.1152
2636.00,-0.1152
2634.00,-0.1151
2632.00,-0.1151
2630.00,-0.1151
2628.00,-0.1151
2626.00,-0.1151
2624.00,-0.1152
2622.00,-0.1152
2620.00,-0.1153
2618.00,-0.1153
2616.00,-0.1154
2614.00,-0.1154
2612.00,-0.1154
2610.00,-0.1154
2608.00,-0.1154
2606.00,-0.1154
2604.00,-0.1153
2602.00,-0.1153
2600.00,-0.1153
2598.00,-0.1153
2596.00,-0.1153
2594.00,-0.1153
2592.00,-0.1153
2590.00,-0.1153
2588.00,-0.1154
2586.00,-0.1154
2584.00,-0.1154
2582.00,-0.1154
2580.00,-0.1154
2578.00,-0.1154
2576.00,-0.1154
2574.00,-0.1153
2572.00,-0.1152
2570.00,-0.1152
2568.00,-0.1152
2566.00,-0.1151
2564.00,-0.1151
2562.00,-0.1151
2560.00,-0.1151
2558.00,-0.1151
2556.00,-0.1151
2554.00,-0.1151
2552.00,-0.1151
2550.00,-0.1151
2548.00,-0.1150
2546.00,-0.1149
2544.00,-0.1149
2542.00,-0.1148
2540.00,-0.1148
2538.00,-0.1147
2536.00,-0.1147
2534.00,-0.1147
2532.00,-0.1147
2530.00,-0.1147
2528.00,-0.1148
2526.00,-0.1148
2524.00,-0.1148
2522.00,-0.1148
2520.00,-0.1147
2518.00,-0.1147
2516.00,-0.1146
2514.00,-0.1146
2512.00,-0.1145
2510.00,-0.1144
2508.00,-0.1143
2506.00,-0.1142
2504.00,-0.1142
2502.00,-0.1141
2500.00,-0.1141
2498.00,-0.1141
2496.00,-0.1141
2494.00,-0.1141
2492.00,-0.1141
2490.00,-0.1141
2488.00,-0.1141
2486.00,-0.1140
2484.00,-0.1140
2482.00,-0.1139
2480.00,-0.1139
2478.00,-0.1138
2476.00,-0.1137
2474.00,-0.1137
2472.00,-0.1136
2470.00,-0.1136
2468.00,-0.1136
2466.00,-0.1136
2464.00,-0.1136
2462.00,-0.1137
2460.00,-0.1137
2458.00,-0.1137
2456.00,-0.1137
2454.00,-0.1137
2452.00,-0.1137
2450.00,-0.1137
2448.00,-0.1137
2446.00,-0.1137
2444.00,-0.1137
2442.00,-0.1137
2440.00,-0.1138
2438.00,-0.1139
2436.00,-0.1139
2434.00,-0.1140
2432.00,-0.1141
2430.00,-0.1142
2428.00,-0.1143
2426.00,-0.1143
2424.00,-0.1144
2422.00,-0.1144
2420.00,-0.1145
2418.00,-0.1145
2416.00,-0.1145
2414.00,-0.1144
2412.00,-0.1144
2410.00,-0.1144
2408.00,-0.1144
2406.00,-0.1144
2404.00,-0.1144
2402.00,-0.1144
2400.00,-0.1144
2398.00,-0.1143
2396.00,-0.1143
2394.00,-0.1143
2392.00,-0.1143
2390.00,-0.1142
2388.00,-0.1142
2386.00,-0.1141
2384.00,-0.1140
2382.00,-0.1141
2380.00,-0.1143
2378.00,-0.1145
2376.00,-0.1147
2374.00,-0.1146
2372.00,-0.1145
2370.00,-0.1143
2368.00,-0.1143
2366.00,-0.1143
2364.00,-0.1143
2362.00,-0.1143
2360.00,-0.1143
2358.00,-0.1143
2356.00,-0.1143
2354.00,-0.1143
2352.00,-0.1144
2350.00,-0.1144
2348.00,-0.1141
2346.00,-0.1141
2344.00,-0.1143
2342.00,-0.1141
2340.00,-0.1140
2338.00,-0.1141
2336.00,-0.1141
2334.00,-0.1141
2332.00,-0.1142
2330.00,-0.1142
2328.00,-0.1141
2326.00,-0.1139
2324.00,-0.1137
2322.00,-0.1137
2320.00,-0.1137
2318.00,-0.1135
2316.00,-0.1134
2314.00,-0.1134
2312.00,-0.1135
2310.00,-0.1135
2308.00,-0.1135
2306.00,-0.1134
2304.00,-0.1134
2302.00,-0.1134
2300.00,-0.1134
2298.00,-0.1133
2296.00,-0.1133
2294.00,-0.1133
2292.00,-0.1132
2290.00,-0.1132
2288.00,-0.1132
2286.00,-0.1132
2284.00,-0.1132
2282.00,-0.1132
2280.00,-0.1132
2278.00,-0.1133
2276.00,-0.1133
2274.00,-0.1134
2272.00,-0.1134
2270.00,-0.1134
2268.00,-0.1134
2266.00,-0.1134
2264.00,-0.1134
2262.00,-0.1134
2260.00,-0.1133
2258.00,-0.1133
2256.00,-0.1133
2254.00,-0.1133
2252.00,-0.1133
2250.00,-0.1133
2248.00,-0.1133
2246.00,-0.1133
2244.00,-0.1133
2242.00,-0.1133
2240.00,-0.1133
2238.00,-0.1132
2236.00,-0.1131
2234.00,-0.1131
2232.00,-0.1130
2230.00,-0.1129
2228.00,-0.1128
2226.00,-0.1127
2224.00,-0.1127
2222.00,-0.1126
2220.00,-0.1126
2218.00,-0.1126
2216.00,-0.1126
2214.00,-0.1126
2212.00,-0.1127
2210.00,-0.1127
2208.00,-0.1127
2206.00,-0.1126
2204.00,-0.1126
2202.00,-0.1125
2200.00,-0.1124
2198.00,-0.1124
2196.00,-0.1123
2194.00,-0.1122
2192.00,-0.1121
2190.00,-0.1121
2188.00,-0.1121
2186.00,-0.1121
2184.00,-0.1121
2182.00,-0.1121
2180.00,-0.1121
2178.00,-0.1121
2176.00,-0.1121
2174.00,-0.1122
2172.00,-0.1122
2170.00,-0.1122
2168.00,-0.1122
2166.00,-0.1122
2164.00,-0.1122
2162.00,-0.1122
2160.00,-0.1122
2158.00,-0.1123
2156.00,-0.1123
2154.00,-0.1123
2152.00,-0.1124
2150.00,-0.1124
2148.00,-0.1124
2146.00,-0.1124
2144.00,-0.1124
2142.00,-0.1123
2140.00,-0.1123
2138.00,-0.1122
2136.00,-0.1121
2134.00,-0.1120
2132.00,-0.1120
2130.00,-0.1119
2128.00,-0.1119
2126.00,-0.1119
2124.00,-0.1119
2122.00,-0.1119
2120.00,-0.1119
2118.00,-0.1120
2116.00,-0.1120
2114.00,-0.1120
2112.00,-0.1120
2110.00,-0.1120
2108.00,-0.1119
2106.00,-0.1119
2104.00,-0.1119
2102.00,-0.1118
2100.00,-0.1118
2098.00,-0.1118
2096.00,-0.1118
2094.00,-0.1118
2092.00,-0.1119
2090.00,-0.1119
2088.00,-0.1120
2086.00,-0.1120
2084.00,-0.1121
2082.00,-0.1121
2080.00,-0.1121
2078.00,-0.1121
2076.00,-0.1120
2074.00,-0.1120
2072.00,-0.1120
2070.00,-0.1119
2068.00,-0.1119
2066.00,-0.1119
2064.00,-0.1119
2062.00,-0.1118
2060.00,-0.1118
2058.00,-0.1118
2056.00,-0.1119
2054.00,-0.1119
2052.00,-0.1119
2050.00,-0.1119
2048.00,-0.1119
2046.00,-0.1119
2044.00,-0.1119
2042.00,-0.1119
2040.00,-0.1119
2038.00,-0.1119
2036.00,-0.1119
2034.00,-0.1120
2032.00,-0.1120
2030.00,-0.1120
2028.00,-0.1120
2026.00,-0.1120
2024.00,-0.1120
2022.00,-0.1120
2020.00,-0.1119
2018.00,-0.1119
2016.00,-0.1119
2014.00,-0.1118
2012.00,-0.1118
2010.00,-0.1117
2008.00,-0.1118
2006.00,-0.1118
2004.00,-0.1118
2002.00,-0.1119
2000.00,-0.1119
1998.00,-0.1120
1996.00,-0.1121
1994.00,-0.1122
1992.00,-0.1123
1990.00,-0.1124
1988.00,-0.1125
1986.00,-0.1126
1984.00,-0.1127
1982.00,-0.1127
1980.00,-0.1128
1978.00,-0.1128
1976.00,-0.1128
1974.00,-0.1127
1972.00,-0.1127
1970.00,-0.1126
1968.00,-0.1126
1966.00,-0.1126
1964.00,-0.1126
1962.00,-0.1127
1960.00,-0.1129
1958.00,-0.1130
1956.00,-0.1132
1954.00,-0.1134
1952.00,-0.1135
1950.00,-0.1136
1948.00,-0.1137
1946.00,-0.1137
1944.00,-0.1136
1942.00,-0.1136
1940.00,-0.1134
1938.00,-0.1132
1936.00,-0.1131
1934.00,-0.1129
1932.00,-0.1128
1930.00,-0.1127
1928.00,-0.1126
1926.00,-0.1126
1924.00,-0.1126
1922.00,-0.1126
1920.00,-0.1125
1918.00,-0.1125
1916.00,-0.1125
1914.00,-0.1124
1912.00,-0.1124
1910.00,-0.1124
1908.00,-0.1124
1906.00,-0.1123
1904.00,-0.1123
1902.00,-0.1124
1900.00,-0.1124
1898.00,-0.1124
1896.00,-0.1125
1894.00,-0.1125
1892.00,-0.1125
1890.00,-0.1126
1888.00,-0.1126
1886.00,-0.1126
1884.00,-0.1126
1882.00,-0.1127
1880.00,-0.1128
1878.00,-0.1128
1876.00,-0.1129
1874.00,-0.1130
1872.00,-0.1130
1870.00,-0.1130
1868.00,-0.1131
1866.00,-0.1131
1864.00,-0.1131
1862.00,-0.1131
1860.00,-0.1131
1858.00,-0.1132
1856.00,-0.1132
1854.00,-0.1133
1852.00,-0.1135
1850.00,-0.1136
1848.00,-0.1137
1846.00,-0.1138
1844.00,-0.1139
1842.00,-0.1140
1840.00,-0.1140
1838.00,-0.1141
1836.00,-0.1142
1834.00,-0.1142
1832.00,-0.1141
1830.00,-0.1141
1828.00,-0.1141
1826.00,-0.1140
1824.00,-0.1141
1822.00,-0.1141
1820.00,-0.1142
1818.00,-0.1143
1816.00,-0.1143
1814.00,-0.1144
1812.00,-0.1145
1810.00,-0.1146
1808.00,-0.1147
1806.00,-0.1148
1804.00,-0.1149
1802.00,-0.1150
1800.00,-0.1150
1798.00,-0.1151
1796.00,-0.1152
1794.00,-0.1152
1792.00,-0.1151
1790.00,-0.1147
1788.00,-0.1144
1786.00,-0.1151
1784.00,-0.1155
1782.00,-0.1154
1780.00,-0.1155
1778.00,-0.1155
1776.00,-0.1156
1774.00,-0.1156
1772.00,-0.1156
1770.00,-0.1156
1768.00,-0.1156
1766.00,-0.1156
1764.00,-0.1156
1762.00,-0.1157
1760.00,-0.1156
1758.00,-0.1155
1756.00,-0.1155
1754.00,-0.1154
1752.00,-0.1152
1750.00,-0.1152
1748.00,-0.1154
1746.00,-0.1155
1744.00,-0.1156
1742.00,-0.1157
1740.00,-0.1157
1738.00,-0.1158
1736.00,-0.1157
1734.00,-0.1155
1732.00,-0.1154
1730.00,-0.1155
1728.00,-0.1157
1726.00,-0.1157
1724.00,-0.1157
1722.00,-0.1157
1720.00,-0.1156
1718.00,-0.1155
1716.00,-0.1154
1714.00,-0.1155
1712.00,-0.1156
1710.00,-0.1157
1708.00,-0.1157
1706.00,-0.1157
1704.00,-0.1158
1702.00,-0.1158
1700.00,-0.1156
1698.00,-0.1154
1696.00,-0.1153
1694.00,-0.1154
1692.00,-0.1153
1690.00,-0.1154
1688.00,-0.1155
1686.00,-0.1154
1684.00,-0.1153
1682.00,-0.1154
1680.00,-0.1154
1678.00,-0.1156
1676.00,-0.1155
1674.00,-0.1155
1672.00,-0.1153
1670.00,-0.1153
1668.00,-0.1154
1666.00,-0.1153
1664.00,-0.1152
1662.00,-0.1152
1660.00,-0.1151
1658.00,-0.1151
1656.00,-0.1153
1654.00,-0.1152
1652.00,-0.1151
1650.00,-0.1147
1648.00,-0.1148
1646.00,-0.1150
1644.00,-0.1150
1642.00,-0.1151
1640.00,-0.1152
1638.00,-0.1152
1636.00,-0.1151
1634.00,-0.1151
1632.00,-0.1150
1630.00,-0.1150
1628.00,-0.1150
1626.00,-0.1150
1624.00,-0.1150
1622.00,-0.1150
1620.00,-0.1151
1618.00,-0.1151
1616.00,-0.1151
1614.00,-0.1151
1612.00,-0.1152
1610.00,-0.1153
1608.00,-0.1154
1606.00,-0.1155
1604.00,-0.1156
1602.00,-0.1155
1600.00,-0.1155
1598.00,-0.1155
1596.00,-0.1155
1594.00,-0.1155
1592.00,-0.1155
1590.00,-0.1155
1588.00,-0.1156
1586.00,-0.1156
1584.00,-0.1157
1582.00,-0.1157
1580.00,-0.1158
1578.00,-0.1158
1576.00,-0.1156
1574.00,-0.1154
1572.00,-0.1154
1570.00,-0.1153
1568.00,-0.1152
1566.00,-0.1150
1564.00,-0.1151
1562.00,-0.1152
1560.00,-0.1148
1558.00,-0.1147
1556.00,-0.1147
1554.00,-0.1148
1552.00,-0.1150
1550.00,-0.1151
1548.00,-0.1152
1546.00,-0.1152
1544.00,-0.1154
1542.00,-0.1153
1540.00,-0.1151
1538.00,-0.1151
1536.00,-0.1151
1534.00,-0.1151
1532.00,-0.1151
1530.00,-0.1150
1528.00,-0.1150
1526.00,-0.1150
1524.00,-0.1149
1522.00,-0.1148
1520.00,-0.1148
1518.00,-0.1148
1516.00,-0.1149
1514.00,-0.1149
1512.00,-0.1148
1510.00,-0.1149
1508.00,-0.1148
1506.00,-0.1148
1504.00,-0.1146
1502.00,-0.1148
1500.00,-0.1149
1498.00,-0.1150
1496.00,-0.1149
1494.00,-0.1149
1492.00,-0.1148
1490.00,-0.1149
1488.00,-0.1150
1486.00,-0.1150
1484.00,-0.1150
1482.00,-0.1150
1480.00,-0.1150
1478.00,-0.1149
1476.00,-0.1148
1474.00,-0.1146
1472.00,-0.1145
1470.00,-0.1146
1468.00,-0.1147
1466.00,-0.1148
1464.00,-0.1148
1462.00,-0.1147
1460.00,-0.1148
1458.00,-0.1148
1456.00,-0.1146
1454.00,-0.1145
1452.00,-0.1145
1450.00,-0.1145
1448.00,-0.1145
1446.00,-0.1146
1444.00,-0.1146
1442.00,-0.1147
1440.00,-0.1147
1438.00,-0.1147
1436.00,-0.1146
1434.00,-0.1146
1432.00,-0.1147
1430.00,-0.1148
1428.00,-0.1149
1426.00,-0.1149
1424.00,-0.1149
1422.00,-0.1150
1420.00,-0.1150
1418.00,-0.1150
1416.00,-0.1149
1414.00,-0.1149
1412.00,-0.1149
1410.00,-0.1149
1408.00,-0.1148
1406.00,-0.1147
1404.00,-0.1145
1402.00,-0.1142
1400.00,-0.1138
1398.00,-0.1134
1396.00,-0.1129
1394.00,-0.1126
1392.00,-0.1125
1390.00,-0.1126
1388.00,-0.1128
1386.00,-0.1128
1384.00,-0.1126
1382.00,-0.1125
1380.00,-0.1126
1378.00,-0.1128
1376.00,-0.1132
1374.00,-0.1136
1372.00,-0.1139
1370.00,-0.1141
1368.00,-0.1141
1366.00,-0.1139
1364.00,-0.1137
1362.00,-0.1135
1360.00,-0.1134
1358.00,-0.1135
1356.00,-0.1137
1354.00,-0.1138
1352.00,-0.1137
1350.00,-0.1136
1348.00,-0.1136
1346.00,-0.1138
1344.00,-0.1141
1342.00,-0.1145
1340.00,-0.1149
1338.00,-0.1152
1336.00,-0.1154
1334.00,-0.1155
1332.00,-0.1155
1330.00,-0.1155
1328.00,-0.1155
1326.00,-0.1155
1324.00,-0.1155
1322.00,-0.1154
1320.00,-0.1154
1318.00,-0.1154
1316.00,-0.1153
1314.00,-0.1153
1312.00,-0.1152
1310.00,-0.1152
1308.00,-0.1152
1306.00,-0.1152
1304.00,-0.1152
1302.00,-0.1151
1300.00,-0.1151
1298.00,-0.1151
1296.00,-0.1150
1294.00,-0.1150
1292.00,-0.1149
1290.00,-0.1149
1288.00,-0.1149
1286.00,-0.1149
1284.00,-0.1150
1282.00,-0.1150
1280.00,-0.1150
1278.00,-0.1151
1276.00,-0.1151
1274.00,-0.1152
1272.00,-0.1152
1270.00,-0.1152
1268.00,-0.1152
1266.00,-0.1152
1264.00,-0.1152
1262.00,-0.1151
1260.00,-0.1150
1258.00,-0.1150
1256.00,-0.1150
1254.00,-0.1150
1252.00,-0.1150
1250.00,-0.1150
1248.00,-0.1151
1246.00,-0.1151
1244.00,-0.1151
1242.00,-0.1152
1240.00,-0.1152
1238.00,-0.1152
1236.00,-0.1152
1234.00,-0.1152
1232.00,-0.1151
1230.00,-0.1151
1228.00,-0.1151
1226.00,-0.1151
1224.00,-0.1150
1222.00,-0.1150
1220.00,-0.1150
1218.00,-0.1150
1216.00,-0.1150
1214.00,-0.1150
1212.00,-0.1150
1210.00,-0.1150
1208.00,-0.1149
1206.00,-0.1148
1204.00,-0.1147
1202.00,-0.1146
1200.00,-0.1144
1198.00,-0.1142
1196.00,-0.1141
1194.00,-0.1140
1192.00,-0.1139
1190.00,-0.1138
1188.00,-0.1138
1186.00,-0.1137
1184.00,-0.1136
1182.00,-0.1135
1180.00,-0.1134
1178.00,-0.1132
1176.00,-0.1131
1174.00,-0.1129
1172.00,-0.1127
1170.00,-0.1124
1168.00,-0.1121
1166.00,-0.1117
1164.00,-0.1114
1162.00,-0.1111
1160.00,-0.1109
1158.00,-0.1107
1156.00,-0.1104
1154.00,-0.1098
1152.00,-0.1084
1150.00,-0.1061
1148.00,-0.1031
1146.00,-0.1002
1144.00,-0.0985
1142.00,-0.0981
1140.00,-0.0986
1138.00,-0.0991
1136.00,-0.0993
1134.00,-0.0997
1132.00,-0.1003
1130.00,-0.1012
1128.00,-0.1024
1126.00,-0.1040
1124.00,-0.1057
1122.00,-0.1074
1120.00,-0.1089
1118.00,-0.1102
1116.00,-0.1112
1114.00,-0.1120
1112.00,-0.1125
1110.00,-0.1130
1108.00,-0.1133
1106.00,-0.1135
1104.00,-0.1136
1102.00,-0.1137
1100.00,-0.1138
1098.00,-0.1139
1096.00,-0.1139
1094.00,-0.1138
1092.00,-0.1137
1090.00,-0.1135
1088.00,-0.1133
1086.00,-0.1132
1084.00,-0.1132
1082.00,-0.1131
1080.00,-0.1131
1078.00,-0.1130
1076.00,-0.1129
1074.00,-0.1128
1072.00,-0.1128
1070.00,-0.1129
1068.00,-0.1130
1066.00,-0.1132
1064.00,-0.1133
1062.00,-0.1135
1060.00,-0.1136
1058.00,-0.1137
1056.00,-0.1138
1054.00,-0.1138
1052.00,-0.1138
1050.00,-0.1139
1048.00,-0.1139
1046.00,-0.1140
1044.00,-0.1140
1042.00,-0.1140
1040.00,-0.1140
1038.00,-0.1141
1036.00,-0.1141
1034.00,-0.1140
1032.00,-0.1141
1030.00,-0.1143
1028.00,-0.1144
1026.00,-0.1145
1024.00,-0.1146
1022.00,-0.1146
1020.00,-0.1147
1018.00,-0.1148
1016.00,-0.1149
1014.00,-0.1149
1012.00,-0.1149
1010.00,-0.1150
1008.00,-0.1151
1006.00,-0.1151
1004.00,-0.1152
1002.00,-0.1152
1000.00,-0.1153
998.00,-0.1154
996.00,-0.1154
994.00,-0.1155
992.00,-0.1156
990.00,-0.1157
988.00,-0.1157
986.00,-0.1157
984.00,-0.1157
982.00,-0.1158
980.00,-0.1158
978.00,-0.1158
976.00,-0.1158
974.00,-0.1159
972.00,-0.1159
970.00,-0.1159
968.00,-0.1159
966.00,-0.1160
964.00,-0.1160
962.00,-0.1160
960.00,-0.1161
958.00,-0.1161
956.00,-0.1161
954.00,-0.1161
952.00,-0.1160
950.00,-0.1160
948.00,-0.1159
946.00,-0.1158
944.00,-0.1158
942.00,-0.1158
940.00,-0.1159
938.00,-0.1159
936.00,-0.1159
934.00,-0.1159
932.00,-0.1159
930.00,-0.1160
928.00,-0.1160
926.00,-0.1160
924.00,-0.1161
922.00,-0.1161
920.00,-0.1161
918.00,-0.1161
916.00,-0.1161
914.00,-0.1162
912.00,-0.1162
910.00,-0.1162
908.00,-0.1162
906.00,-0.1163
904.00,-0.1164
902.00,-0.1164
900.00,-0.1165
898.00,-0.1165
896.00,-0.1165
894.00,-0.1165
892.00,-0.1165
890.00,-0.1166
888.00,-0.1167
886.00,-0.1166
884.00,-0.1165
882.00,-0.1164
880.00,-0.1164
878.00,-0.1165
876.00,-0.1165
874.00,-0.1164
872.00,-0.1165
870.00,-0.1165
868.00,-0.1165
866.00,-0.1165
864.00,-0.1164
862.00,-0.1164
860.00,-0.1164
858.00,-0.1163
856.00,-0.1163
854.00,-0.1163
852.00,-0.1163
850.00,-0.1163
848.00,-0.1163
846.00,-0.1163
844.00,-0.1163
842.00,-0.1163
840.00,-0.1163
838.00,-0.1163
836.00,-0.1164
834.00,-0.1164
832.00,-0.1164
830.00,-0.1164
828.00,-0.1164
826.00,-0.1164
824.00,-0.1163
822.00,-0.1163
820.00,-0.1163
818.00,-0.1164
816.00,-0.1164
814.00,-0.1164
812.00,-0.1164
810.00,-0.1165
808.00,-0.1165
806.00,-0.1165
804.00,-0.1166
802.00,-0.1166
800.00,-0.1166
798.00,-0.1166
796.00,-0.1166
794.00,-0.1165
792.00,-0.1165
790.00,-0.1165
788.00,-0.1165
786.00,-0.1166
784.00,-0.1166
782.00,-0.1166
780.00,-0.1166
778.00,-0.1167
776.00,-0.1167
774.00,-0.1167
772.00,-0.1167
770.00,-0.1167
768.00,-0.1167
766.00,-0.1167
764.00,-0.1166
762.00,-0.1166
760.00,-0.1165
758.00,-0.1165
756.00,-0.1166
754.00,-0.1165
752.00,-0.1165
750.00,-0.1165
748.00,-0.1165
746.00,-0.1165
744.00,-0.1166
742.00,-0.1165
740.00,-0.1165
738.00,-0.1165
736.00,-0.1165
734.00,-0.1165
732.00,-0.1165
730.00,-0.1165
728.00,-0.1164
726.00,-0.1164
724.00,-0.1164
722.00,-0.1164
720.00,-0.1164
718.00,-0.1164
716.00,-0.1165
714.00,-0.1164
712.00,-0.1164
710.00,-0.1164
708.00,-0.1164
706.00,-0.1163
704.00,-0.1163
702.00,-0.1164
700.00,-0.1163
698.00,-0.1163
696.00,-0.1163
694.00,-0.1163
692.00,-0.1163
690.00,-0.1163
688.00,-0.1164
686.00,-0.1164
684.00,-0.1164
682.00,-0.1165
680.00,-0.1164
678.00,-0.1165
676.00,-0.1164
674.00,-0.1163
672.00,-0.1164
670.00,-0.1174
668.00,-0.1185
666.00,-0.1170
664.00,-0.1162
662.00,-0.1161
660.00,-0.1162
658.00,-0.1162
656.00,-0.1162
654.00,-0.1162
652.00,-0.1162
650.00,-0.1162
648.00,-0.1161
646.00,-0.1161
644.00,-0.1161
642.00,-0.1160
640.00,-0.1160
638.00,-0.1159
636.00,-0.1159
634.00,-0.1159
632.00,-0.1158
630.00,-0.1158
628.00,-0.1158
626.00,-0.1158
624.00,-0.1158
622.00,-0.1159
620.00,-0.1158
618.00,-0.1159
616.00,-0.1160
614.00,-0.1159
612.00,-0.1158
610.00,-0.1158
608.00,-0.1158
606.00,-0.1158
604.00,-0.1158
602.00,-0.1159
600.00,-0.1159
598.00,-0.1159
596.00,-0.1160
594.00,-0.1160
592.00,-0.1160
590.00,-0.1160
588.00,-0.1161
586.00,-0.1159
584.00,-0.1158
582.00,-0.1158
580.00,-0.1158
578.00,-0.1157
576.00,-0.1156
574.00,-0.1155
572.00,-0.1156
570.00,-0.1156
568.00,-0.1156
566.00,-0.1155
564.00,-0.1156
562.00,-0.1155
560.00,-0.1155
558.00,-0.1155
556.00,-0.1156
554.00,-0.1157
552.00,-0.1157
550.00,-0.1157
548.00,-0.1157
546.00,-0.1157
544.00,-0.1157
542.00,-0.1157
540.00,-0.1157
538.00,-0.1158
536.00,-0.1158
534.00,-0.1158
532.00,-0.1159
530.00,-0.1160
528.00,-0.1160
526.00,-0.1160
524.00,-0.1161
522.00,-0.1163
520.00,-0.1164
518.00,-0.1164
516.00,-0.1164
514.00,-0.1165
512.00,-0.1165
510.00,-0.1166
508.00,-0.1166
506.00,-0.1167
504.00,-0.1169
502.00,-0.1169
500.00,-0.1168
