Created as New Dataset,Sample 045 By Analyst Date Wednesday, April 02 2025
cm-1,A
4000.00,-0.1176
3998.00,-0.1175
3996.00,-0.1175
3994.00,-0.1176
3992.00,-0.1175
3990.00,-0.1175
3988.00,-0.1175
3986.00,-0.1175
3984.00,-0.1174
3982.00,-0.1174
3980.00,-0.1173
3978.00,-0.1173
3976.00,-0.1172
3974.00,-0.1172
3972.00,-0.1172
3970.00,-0.1172
3968.00,-0.1172
3966.00,-0.1172
3964.00,-0.1172
3962.00,-0.1172
3960.00,-0.1172
3958.00,-0.1172
3956.00,-0.1172
3954.00,-0.1171
3952.00,-0.1170
3950.00,-0.1169
3948.00,-0.1168
3946.00,-0.1168
3944.00,-0.1167
3942.00,-0.1168
3940.00,-0.1169
3938.00,-0.1168
3936.00,-0.1168
3934.00,-0.1167
3932.00,-0.1167
3930.00,-0.1167
3928.00,-0.1167
3926.00,-0.1166
3924.00,-0.1167
3922.00,-0.1166
3920.00,-0.1164
3918.00,-0.1163
3916.00,-0.1164
3914.00,-0.1165
3912.00,-0.1165
3910.00,-0.1166
3908.00,-0.1165
3906.00,-0.1162
3904.00,-0.1159
3902.00,-0.1156
3900.00,-0.1156
3898.00,-0.1159
3896.00,-0.1161
3894.00,-0.1162
3892.00,-0.1163
3890.00,-0.1163
3888.00,-0.1160
3886.00,-0.1157
3884.00,-0.1158
3882.00,-0.1157
3880.00,-0.1158
3878.00,-0.1160
3876.00,-0.1158
3874.00,-0.1159
3872.00,-0.1160
3870.00,-0.1155
3868.00,-0.1156
3866.00,-0.1154
3864.00,-0.1156
3862.00,-0.1158
3860.00,-0.1157
3858.00,-0.1160
3856.00,-0.1162
3854.00,-0.1156
3852.00,-0.1152
3850.00,-0.1150
3848.00,-0.1152
3846.00,-0.1156
3844.00,-0.1156
3842.00,-0.1156
3840.00,-0.1155
3838.00,-0.1152
3836.00,-0.1151
3834.00,-0.1152
3832.00,-0.1153
3830.00,-0.1155
3828.00,-0.1155
3826.00,-0.1155
3824.00,-0.1154
3822.00,-0.1149
3820.00,-0.1150
3818.00,-0.1150
3816.00,-0.1149
3814.00,-0.1153
3812.00,-0.1154
3810.00,-0.1156
3808.00,-0.1155
3806.00,-0.1153
3804.00,-0.1152
3802.00,-0.1149
3800.00,-0.1151
3798.00,-0.1150
3796.00,-0.1151
3794.00,-0.1155
3792.00,-0.1156
3790.00,-0.1157
3788.00,-0.1157
3786.00,-0.1157
3784.00,-0.1156
3782.00,-0.1155
3780.00,-0.1155
3778.00,-0.1156
3776.00,-0.1157
3774.00,-0.1157
3772.00,-0.1156
3770.00,-0.1155
3768.00,-0.1154
3766.00,-0.1153
3764.00,-0.1153
3762.00,-0.1152
3760.00,-0.1151
3758.00,-0.1151
3756.00,-0.1149
3754.00,-0.1147
3752.00,-0.1144
3750.00,-0.1140
3748.00,-0.1138
3746.00,-0.1137
3744.00,-0.1137
3742.00,-0.1139
3740.00,-0.1137
3738.00,-0.1136
3736.00,-0.1136
3734.00,-0.1138
3732.00,-0.1138
3730.00,-0.1140
3728.00,-0.1140
3726.00,-0.1141
3724.00,-0.1142
3722.00,-0.1142
3720.00,-0.1144
3718.00,-0.1145
3716.00,-0.1145
3714.00,-0.1144
3712.00,-0.1143
3710.00,-0.1144
3708.00,-0.1145
3706.00,-0.1147
3704.00,-0.1150
3702.00,-0.1152
3700.00,-0.1154
3698.00,-0.1154
3696.00,-0.1154
3694.00,-0.1154
3692.00,-0.1153
3690.00,-0.1154
3688.00,-0.1153
3686.00,-0.1154
3684.00,-0.1157
3682.00,-0.1159
3680.00,-0.1159
3678.00,-0.1158
3676.00,-0.1153
3674.00,-0.1152
3672.00,-0.1150
3670.00,-0.1149
3668.00,-0.1155
3666.00,-0.1157
3664.00,-0.1159
3662.00,-0.1161
3660.00,-0.1161
3658.00,-0.1159
3656.00,-0.1156
3654.00,-0.1153
3652.00,-0.1147
3650.00,-0.1144
3648.00,-0.1144
3646.00,-0.1147
3644.00,-0.1151
3642.00,-0.1155
3640.00,-0.1157
3638.00,-0.1157
3636.00,-0.1156
3634.00,-0.1154
3632.00,-0.1153
3630.00,-0.1148
3628.00,-0.1148
3626.00,-0.1149
3624.00,-0.1150
3622.00,-0.1153
3620.00,-0.1153
3618.00,-0.1153
3616.00,-0.1151
3614.00,-0.1150
3612.00,-0.1152
3610.00,-0.1151
3608.00,-0.1152
3606.00,-0.1154
3604.00,-0.1155
3602.00,-0.1156
3600.00,-0.1157
3598.00,-0.1156
3596.00,-0.1156
3594.00,-0.1156
3592.00,-0.1156
3590.00,-0.1153
3588.00,-0.1153
3586.00,-0.1155
3584.00,-0.1156
3582.00,-0.1158
3580.00,-0.1161
3578.00,-0.1162
3576.00,-0.1162
3574.00,-0.1162
3572.00,-0.1160
3570.00,-0.1157
3568.00,-0.1154
3566.00,-0.1156
3564.00,-0.1157
3562.00,-0.1159
3560.00,-0.1163
3558.00,-0.1165
3556.00,-0.1165
3554.00,-0.1165
3552.00,-0.1165
3550.00,-0.1164
3548.00,-0.1162
3546.00,-0.1162
3544.00,-0.1163
3542.00,-0.1164
3540.00,-0.1164
3538.00,-0.1164
3536.00,-0.1165
3534.00,-0.1165
3532.00,-0.1164
3530.00,-0.1164
3528.00,-0.1164
3526.00,-0.1164
3524.00,-0.1164
3522.00,-0.1165
3520.00,-0.1166
3518.00,-0.1166
3516.00,-0.1166
3514.00,-0.1165
3512.00,-0.1165
3510.00,-0.1164
3508.00,-0.1164
3506.00,-0.1162
3504.00,-0.1162
3502.00,-0.1162
3500.00,-0.1163
3498.00,-0.1163
3496.00,-0.1164
3494.00,-0.1165
3492.00,-0.1165
3490.00,-0.1166
3488.00,-0.1166
3486.00,-0.1166
3484.00,-0.1166
3482.00,-0.1166
3480.00,-0.1166
3478.00,-0.1166
3476.00,-0.1166
3474.00,-0.1167
3472.00,-0.1167
3470.00,-0.1167
3468.00,-0.1168
3466.00,-0.1169
3464.00,-0.1170
3462.00,-0.1170
3460.00,-0.1171
3458.00,-0.1172
3456.00,-0.1173
3454.00,-0.1173
3452.00,-0.1173
3450.00,-0.1173
3448.00,-0.1172
3446.00,-0.1173
3444.00,-0.1173
3442.00,-0.1174
3440.00,-0.1174
3438.00,-0.1174
3436.00,-0.1175
3434.00,-0.1176
3432.00,-0.1176
3430.00,-0.1176
3428.00,-0.1176
3426.00,-0.1176
3424.00,-0.1176
3422.00,-0.1175
3420.00,-0.1174
3418.00,-0.1174
3416.00,-0.1173
3414.00,-0.1172
3412.00,-0.1171
3410.00,-0.1170
3408.00,-0.1169
3406.00,-0.1169
3404.00,-0.1168
3402.00,-0.1167
3400.00,-0.1166
3398.00,-0.1166
3396.00,-0.1165
3394.00,-0.1164
3392.00,-0.1163
3390.00,-0.1163
3388.00,-0.1162
3386.00,-0.1162
3384.00,-0.1161
3382.00,-0.1160
3380.00,-0.1160
3378.00,-0.1160
3376.00,-0.1160
3374.00,-0.1160
3372.00,-0.1159
3370.00,-0.1159
3368.00,-0.1159
3366.00,-0.1159
3364.00,-0.1160
3362.00,-0.1160
3360.00,-0.1159
3358.00,-0.1159
3356.00,-0.1159
3354.00,-0.1159
3352.00,-0.1158
3350.00,-0.1158
3348.00,-0.1159
3346.00,-0.1159
3344.00,-0.1159
3342.00,-0.1159
3340.00,-0.1160
3338.00,-0.1160
3336.00,-0.1161
3334.00,-0.1162
3332.00,-0.1162
3330.00,-0.1162
3328.00,-0.1162
3326.00,-0.1162
3324.00,-0.1162
3322.00,-0.1162
3320.00,-0.1162
3318.00,-0.1163
3316.00,-0.1163
3314.00,-0.1164
3312.00,-0.1165
3310.00,-0.1166
3308.00,-0.1167
3306.00,-0.1169
3304.00,-0.1171
3302.00,-0.1172
3300.00,-0.1172
3298.00,-0.1170
3296.00,-0.1168
3294.00,-0.1166
3292.00,-0.1164
3290.00,-0.1163
3288.00,-0.1162
3286.00,-0.1161
3284.00,-0.1160
3282.00,-0.1160
3280.00,-0.1159
3278.00,-0.1159
3276.00,-0.1158
3274.00,-0.1158
3272.00,-0.1157
3270.00,-0.1157
3268.00,-0.1157
3266.00,-0.1157
3264.00,-0.1157
3262.00,-0.1156
3260.00,-0.1156
3258.00,-0.1156
3256.00,-0.1155
3254.00,-0.1155
3252.00,-0.1156
3250.00,-0.1156
3248.00,-0.1156
3246.00,-0.1156
3244.00,-0.1157
3242.00,-0.1157
3240.00,-0.1158
3238.00,-0.1158
3236.00,-0.1157
3234.00,-0.1157
3232.00,-0.1157
3230.00,-0.1157
3228.00,-0.1157
3226.00,-0.1157
3224.00,-0.1157
3222.00,-0.1158
3220.00,-0.1158
3218.00,-0.1158
3216.00,-0.1159
3214.00,-0.1160
3212.00,-0.1161
3210.00,-0.1161
3208.00,-0.1162
3206.00,-0.1162
3204.00,-0.1162
3202.00,-0.1162
3200.00,-0.1162
3198.00,-0.1162
3196.00,-0.1162
3194.00,-0.1162
3192.00,-0.1162
3190.00,-0.1162
3188.00,-0.1162
3186.00,-0.1163
3184.00,-0.1164
3182.00,-0.1164
3180.00,-0.1165
3178.00,-0.1165
3176.00,-0.1165
3174.00,-0.1165
3172.00,-0.1165
3170.00,-0.1164
3168.00,-0.1164
3166.00,-0.1164
3164.00,-0.1164
3162.00,-0.1164
3160.00,-0.1164
3158.00,-0.1164
3156.00,-0.1164
3154.00,-0.1164
3152.00,-0.1164
3150.00,-0.1165
3148.00,-0.1165
3146.00,-0.1165
3144.00,-0.1165
3142.00,-0.1165
3140.00,-0.1164
3138.00,-0.1164
3136.00,-0.1164
3134.00,-0.1164
3132.00,-0.1164
3130.00,-0.1164
3128.00,-0.1164
3126.00,-0.1165
3124.00,-0.1165
3122.00,-0.1165
3120.00,-0.1165
3118.00,-0.1166
3116.00,-0.1167
3114.00,-0.1168
3112.00,-0.1168
3110.00,-0.1169
3108.00,-0.1169
3106.00,-0.1169
3104.00,-0.1169
3102.00,-0.1169
3100.00,-0.1169
3098.00,-0.1169
3096.00,-0.1169
3094.00,-0.1169
3092.00,-0.1170
3090.00,-0.1171
3088.00,-0.1172
3086.00,-0.1173
3084.00,-0.1174
3082.00,-0.1175
3080.00,-0.1175
3078.00,-0.1175
3076.00,-0.1176
3074.00,-0.1176
3072.00,-0.1176
3070.00,-0.1175
3068.00,-0.1175
3066.00,-0.1175
3064.00,-0.1175
3062.00,-0.1175
3060.00,-0.1176
3058.00,-0.1176
3056.00,-0.1176
3054.00,-0.1176
3052.00,-0.1176
3050.00,-0.1176
3048.00,-0.1176
3046.00,-0.1175
3044.00,-0.1175
3042.00,-0.1174
3040.00,-0.1174
3038.00,-0.1174
3036.00,-0.1173
3034.00,-0.1172
3032.00,-0.1172
3030.00,-0.1171
3028.00,-0.1170
3026.00,-0.1169
3024.00,-0.1167
3022.00,-0.1164
3020.00,-0.1160
3018.00,-0.1156
3016.00,-0.1150
3014.00,-0.1144
3012.00,-0.1137
3010.00,-0.1129
3008.00,-0.1121
3006.00,-0.1112
3004.00,-0.1102
3002.00,-0.1092
3000.00,-0.1081
2998.00,-0.1069
2996.00,-0.1056
2994.00,-0.1044
2992.00,-0.1028
2990.00,-0.1014
2988.00,-0.1014
2986.00,-0.1021
2984.00,-0.1024
2982.00,-0.1024
2980.00,-0.1026
2978.00,-0.1031
2976.00,-0.1040
2974.00,-0.1050
2972.00,-0.1061
2970.00,-0.1072
2968.00,-0.1083
2966.00,-0.1093
2964.00,-0.1101
2962.00,-0.1106
2960.00,-0.1108
2958.00,-0.1108
2956.00,-0.1107
2954.00,-0.1106
2952.00,-0.1106
2950.00,-0.1105
2948.00,-0.1105
2946.00,-0.1104
2944.00,-0.1105
2942.00,-0.1108
2940.00,-0.1111
2938.00,-0.1115
2936.00,-0.1118
2934.00,-0.1120
2932.00,-0.1123
2930.00,-0.1128
2928.00,-0.1133
2926.00,-0.1136
2924.00,-0.1138
2922.00,-0.1139
2920.00,-0.1138
2918.00,-0.1137
2916.00,-0.1136
2914.00,-0.1134
2912.00,-0.1131
2910.00,-0.1127
2908.00,-0.1123
2906.00,-0.1119
2904.00,-0.1114
2902.00,-0.1110
2900.00,-0.1105
2898.00,-0.1098
2896.00,-0.1090
2894.00,-0.1082
2892.00,-0.1072
2890.00,-0.1063
2888.00,-0.1054
2886.00,-0.1045
2884.00,-0.1037
2882.00,-0.1030
2880.00,-0.1023
2878.00,-0.1016
2876.00,-0.1008
2874.00,-0.1002
2872.00,-0.0995
2870.00,-0.0993
2868.00,-0.0999
2866.00,-0.1010
2864.00,-0.1020
2862.00,-0.1029
2860.00,-0.1036
2858.00,-0.1042
2856.00,-0.1049
2854.00,-0.1057
2852.00,-0.1065
2850.00,-0.1074
2848.00,-0.1083
2846.00,-0.1092
2844.00,-0.1100
2842.00,-0.1108
2840.00,-0.1115
2838.00,-0.1122
2836.00,-0.1127
2834.00,-0.1132
2832.00,-0.1136
2830.00,-0.1138
2828.00,-0.1140
2826.00,-0.1141
2824.00,-0.1142
2822.00,-0.1142
2820.00,-0.1143
2818.00,-0.1143
2816.00,-0.1144
2814.00,-0.1145
2812.00,-0.1147
2810.00,-0.1148
2808.00,-0.1148
2806.00,-0.1148
2804.00,-0.1149
2802.00,-0.1149
2800.00,-0.1150
2798.00,-0.1150
2796.00,-0.1151
2794.00,-0.1151
2792.00,-0.1151
2790.00,-0.1151
2788.00,-0.1152
2786.00,-0.1154
2784.00,-0.1155
2782.00,-0.1155
2780.00,-0.1156
2778.00,-0.1157
2776.00,-0.1157
2774.00,-0.1158
2772.00,-0.1159
2770.00,-0.1160
2768.00,-0.1161
2766.00,-0.1161
2764.00,-0.1161
2762.00,-0.1161
2760.00,-0.1160
2758.00,-0.1160
2756.00,-0.1160
2754.00,-0.1161
2752.00,-0.1161
2750.00,-0.1161
2748.00,-0.1162
2746.00,-0.1162
2744.00,-0.1163
2742.00,-0.1164
2740.00,-0.1165
2738.00,-0.1165
2736.00,-0.1166
2734.00,-0.1166
2732.00,-0.1165
2730.00,-0.1165
2728.00,-0.1164
2726.00,-0.1163
2724.00,-0.1163
2722.00,-0.1162
2720.00,-0.1162
2718.00,-0.1162
2716.00,-0.1162
2714.00,-0.1162
2712.00,-0.1162
2710.00,-0.1162
2708.00,-0.1163
2706.00,-0.1163
2704.00,-0.1162
2702.00,-0.1162
2700.00,-0.1162
2698.00,-0.1162
2696.00,-0.1162
2694.00,-0.1161
2692.00,-0.1161
2690.00,-0.1161
2688.00,-0.1162
2686.00,-0.1162
2684.00,-0.1163
2682.00,-0.1164
2680.00,-0.1164
2678.00,-0.1165
2676.00,-0.1165
2674.00,-0.1166
2672.00,-0.1165
2670.00,-0.1165
2668.00,-0.1165
2666.00,-0.1164
2664.00,-0.1163
2662.00,-0.1162
2660.00,-0.1162
2658.00,-0.1161
2656.00,-0.1161
2654.00,-0.1161
2652.00,-0.1161
2650.00,-0.1161
2648.00,-0.1161
2646.00,-0.1161
2644.00,-0.1161
2642.00,-0.1160
2640.00,-0.1160
2638.00,-0.1159
2636.00,-0.1159
2634.00,-0.1159
2632.00,-0.1158
2630.00,-0.1158
2628.00,-0.1158
2626.00,-0.1158
2624.00,-0.1159
2622.00,-0.1159
2620.00,-0.1160
2618.00,-0.1160
2616.00,-0.1161
2614.00,-0.1161
2612.00,-0.1161
2610.00,-0.1161
2608.00,-0.1161
2606.00,-0.1161
2604.00,-0.1161
2602.00,-0.1160
2600.00,-0.1160
2598.00,-0.1160
2596.00,-0.1160
2594.00,-0.1160
2592.00,-0.1161
2590.00,-0.1161
2588.00,-0.1162
2586.00,-0.1162
2584.00,-0.1162
2582.00,-0.1163
2580.00,-0.1163
2578.00,-0.1162
2576.00,-0.1162
2574.00,-0.1161
2572.00,-0.1161
2570.00,-0.1160
2568.00,-0.1160
2566.00,-0.1160
2564.00,-0.1159
2562.00,-0.1159
2560.00,-0.1159
2558.00,-0.1160
2556.00,-0.1160
2554.00,-0.1160
2552.00,-0.1160
2550.00,-0.1159
2548.00,-0.1159
2546.00,-0.1158
2544.00,-0.1158
2542.00,-0.1157
2540.00,-0.1156
2538.00,-0.1156
2536.00,-0.1156
2534.00,-0.1156
2532.00,-0.1156
2530.00,-0.1156
2528.00,-0.1156
2526.00,-0.1156
2524.00,-0.1156
2522.00,-0.1156
2520.00,-0.1156
2518.00,-0.1156
2516.00,-0.1155
2514.00,-0.1154
2512.00,-0.1153
2510.00,-0.1153
2508.00,-0.1152
2506.00,-0.1151
2504.00,-0.1150
2502.00,-0.1150
2500.00,-0.1149
2498.00,-0.1149
2496.00,-0.1149
2494.00,-0.1149
2492.00,-0.1149
2490.00,-0.1149
2488.00,-0.1149
2486.00,-0.1149
2484.00,-0.1149
2482.00,-0.1148
2480.00,-0.1147
2478.00,-0.1147
2476.00,-0.1146
2474.00,-0.1145
2472.00,-0.1145
2470.00,-0.1145
2468.00,-0.1145
2466.00,-0.1145
2464.00,-0.1145
2462.00,-0.1145
2460.00,-0.1145
2458.00,-0.1146
2456.00,-0.1146
2454.00,-0.1146
2452.00,-0.1145
2450.00,-0.1145
2448.00,-0.1145
2446.00,-0.1145
2444.00,-0.1145
2442.00,-0.1146
2440.00,-0.1146
2438.00,-0.1147
2436.00,-0.1148
2434.00,-0.1149
2432.00,-0.1149
2430.00,-0.1150
2428.00,-0.1151
2426.00,-0.1152
2424.00,-0.1152
2422.00,-0.1153
2420.00,-0.1153
2418.00,-0.1153
2416.00,-0.1153
2414.00,-0.1153
2412.00,-0.1153
2410.00,-0.1153
2408.00,-0.1153
2406.00,-0.1152
2404.00,-0.1152
2402.00,-0.1152
2400.00,-0.1152
2398.00,-0.1152
2396.00,-0.1152
2394.00,-0.1152
2392.00,-0.1152
2390.00,-0.1152
2388.00,-0.1152
2386.00,-0.1152
2384.00,-0.1153
2382.00,-0.1154
2380.00,-0.1154
2378.00,-0.1154
2376.00,-0.1152
2374.00,-0.1151
2372.00,-0.1151
2370.00,-0.1151
2368.00,-0.1150
2366.00,-0.1150
2364.00,-0.1150
2362.00,-0.1150
2360.00,-0.1149
2358.00,-0.1148
2356.00,-0.1148
2354.00,-0.1146
2352.00,-0.1142
2350.00,-0.1143
2348.00,-0.1151
2346.00,-0.1155
2344.00,-0.1151
2342.00,-0.1148
2340.00,-0.1147
2338.00,-0.1147
2336.00,-0.1147
2334.00,-0.1148
2332.00,-0.1148
2330.00,-0.1147
2328.00,-0.1145
2326.00,-0.1145
2324.00,-0.1144
2322.00,-0.1142
2320.00,-0.1140
2318.00,-0.1139
2316.00,-0.1140
2314.00,-0.1141
2312.00,-0.1141
2310.00,-0.1140
2308.00,-0.1140
2306.00,-0.1141
2304.00,-0.1141
2302.00,-0.1141
2300.00,-0.1141
2298.00,-0.1141
2296.00,-0.1141
2294.00,-0.1141
2292.00,-0.1140
2290.00,-0.1140
2288.00,-0.1140
2286.00,-0.1140
2284.00,-0.1140
2282.00,-0.1140
2280.00,-0.1141
2278.00,-0.1141
2276.00,-0.1142
2274.00,-0.1142
2272.00,-0.1143
2270.00,-0.1143
2268.00,-0.1143
2266.00,-0.1143
2264.00,-0.1143
2262.00,-0.1143
2260.00,-0.1142
2258.00,-0.1142
2256.00,-0.1142
2254.00,-0.1141
2252.00,-0.1141
2250.00,-0.1141
2248.00,-0.1141
2246.00,-0.1141
2244.00,-0.1142
2242.00,-0.1142
2240.00,-0.1141
2238.00,-0.1141
2236.00,-0.1140
2234.00,-0.1140
2232.00,-0.1139
2230.00,-0.1138
2228.00,-0.1137
2226.00,-0.1136
2224.00,-0.1135
2222.00,-0.1135
2220.00,-0.1135
2218.00,-0.1135
2216.00,-0.1135
2214.00,-0.1135
2212.00,-0.1135
2210.00,-0.1135
2208.00,-0.1135
2206.00,-0.1135
2204.00,-0.1135
2202.00,-0.1134
2200.00,-0.1133
2198.00,-0.1132
2196.00,-0.1132
2194.00,-0.1131
2192.00,-0.1130
2190.00,-0.1130
2188.00,-0.1129
2186.00,-0.1129
2184.00,-0.1129
2182.00,-0.1130
2180.00,-0.1130
2178.00,-0.1130
2176.00,-0.1130
2174.00,-0.1130
2172.00,-0.1130
2170.00,-0.1130
2168.00,-0.1131
2166.00,-0.1131
2164.00,-0.1131
2162.00,-0.1131
2160.00,-0.1131
2158.00,-0.1132
2156.00,-0.1132
2154.00,-0.1132
2152.00,-0.1133
2150.00,-0.1133
2148.00,-0.1133
2146.00,-0.1133
2144.00,-0.1133
2142.00,-0.1132
2140.00,-0.1132
2138.00,-0.1131
2136.00,-0.1130
2134.00,-0.1129
2132.00,-0.1129
2130.00,-0.1128
2128.00,-0.1128
2126.00,-0.1128
2124.00,-0.1128
2122.00,-0.1128
2120.00,-0.1128
2118.00,-0.1129
2116.00,-0.1129
2114.00,-0.1129
2112.00,-0.1129
2110.00,-0.1129
2108.00,-0.1129
2106.00,-0.1128
2104.00,-0.1128
2102.00,-0.1128
2100.00,-0.1127
2098.00,-0.1127
2096.00,-0.1127
2094.00,-0.1128
2092.00,-0.1128
2090.00,-0.1128
2088.00,-0.1129
2086.00,-0.1129
2084.00,-0.1130
2082.00,-0.1130
2080.00,-0.1130
2078.00,-0.1130
2076.00,-0.1130
2074.00,-0.1130
2072.00,-0.1129
2070.00,-0.1129
2068.00,-0.1128
2066.00,-0.1128
2064.00,-0.1128
2062.00,-0.1128
2060.00,-0.1128
2058.00,-0.1128
2056.00,-0.1128
2054.00,-0.1128
2052.00,-0.1128
2050.00,-0.1128
2048.00,-0.1128
2046.00,-0.1128
2044.00,-0.1128
2042.00,-0.1128
2040.00,-0.1128
2038.00,-0.1128
2036.00,-0.1128
2034.00,-0.1129
2032.00,-0.1129
2030.00,-0.1129
2028.00,-0.1129
2026.00,-0.1129
2024.00,-0.1129
2022.00,-0.1129
2020.00,-0.1128
2018.00,-0.1128
2016.00,-0.1128
2014.00,-0.1127
2012.00,-0.1127
2010.00,-0.1127
2008.00,-0.1126
2006.00,-0.1127
2004.00,-0.1127
2002.00,-0.1127
2000.00,-0.1128
1998.00,-0.1129
1996.00,-0.1129
1994.00,-0.1130
1992.00,-0.1131
1990.00,-0.1132
1988.00,-0.1132
1986.00,-0.1133
1984.00,-0.1134
1982.00,-0.1134
1980.00,-0.1135
1978.00,-0.1135
1976.00,-0.1135
1974.00,-0.1134
1972.00,-0.1134
1970.00,-0.1134
1968.00,-0.1134
1966.00,-0.1134
1964.00,-0.1134
1962.00,-0.1135
1960.00,-0.1137
1958.00,-0.1138
1956.00,-0.1140
1954.00,-0.1142
1952.00,-0.1144
1950.00,-0.1145
1948.00,-0.1146
1946.00,-0.1146
1944.00,-0.1145
1942.00,-0.1145
1940.00,-0.1143
1938.00,-0.1141
1936.00,-0.1139
1934.00,-0.1138
1932.00,-0.1137
1930.00,-0.1136
1928.00,-0.1135
1926.00,-0.1135
1924.00,-0.1135
1922.00,-0.1135
1920.00,-0.1134
1918.00,-0.1134
1916.00,-0.1134
1914.00,-0.1133
1912.00,-0.1133
1910.00,-0.1133
1908.00,-0.1133
1906.00,-0.1132
1904.00,-0.1132
1902.00,-0.1133
1900.00,-0.1133
1898.00,-0.1133
1896.00,-0.1134
1894.00,-0.1134
1892.00,-0.1134
1890.00,-0.1135
1888.00,-0.1136
1886.00,-0.1135
1884.00,-0.1136
1882.00,-0.1136
1880.00,-0.1137
1878.00,-0.1138
1876.00,-0.1138
1874.00,-0.1139
1872.00,-0.1139
1870.00,-0.1139
1868.00,-0.1141
1866.00,-0.1140
1864.00,-0.1140
1862.00,-0.1140
1860.00,-0.1141
1858.00,-0.1141
1856.00,-0.1142
1854.00,-0.1143
1852.00,-0.1144
1850.00,-0.1145
1848.00,-0.1147
1846.00,-0.1148
1844.00,-0.1149
1842.00,-0.1149
1840.00,-0.1150
1838.00,-0.1151
1836.00,-0.1151
1834.00,-0.1151
1832.00,-0.1151
1830.00,-0.1151
1828.00,-0.1151
1826.00,-0.1150
1824.00,-0.1151
1822.00,-0.1151
1820.00,-0.1151
1818.00,-0.1152
1816.00,-0.1153
1814.00,-0.1153
1812.00,-0.1154
1810.00,-0.1155
1808.00,-0.1156
1806.00,-0.1157
1804.00,-0.1158
1802.00,-0.1159
1800.00,-0.1160
1798.00,-0.1160
1796.00,-0.1161
1794.00,-0.1161
1792.00,-0.1161
1790.00,-0.1162
1788.00,-0.1158
1786.00,-0.1156
1784.00,-0.1159
1782.00,-0.1163
1780.00,-0.1164
1778.00,-0.1164
1776.00,-0.1165
1774.00,-0.1165
1772.00,-0.1165
1770.00,-0.1165
1768.00,-0.1165
1766.00,-0.1166
1764.00,-0.1166
1762.00,-0.1166
1760.00,-0.1165
1758.00,-0.1164
1756.00,-0.1165
1754.00,-0.1163
1752.00,-0.1161
1750.00,-0.1162
1748.00,-0.1163
1746.00,-0.1165
1744.00,-0.1166
1742.00,-0.1167
1740.00,-0.1166
1738.00,-0.1167
1736.00,-0.1166
1734.00,-0.1164
1732.00,-0.1163
1730.00,-0.1165
1728.00,-0.1166
1726.00,-0.1166
1724.00,-0.1166
1722.00,-0.1166
1720.00,-0.1166
1718.00,-0.1164
1716.00,-0.1163
1714.00,-0.1164
1712.00,-0.1165
1710.00,-0.1166
1708.00,-0.1166
1706.00,-0.1166
1704.00,-0.1167
1702.00,-0.1166
1700.00,-0.1165
1698.00,-0.1162
1696.00,-0.1162
1694.00,-0.1163
1692.00,-0.1162
1690.00,-0.1163
1688.00,-0.1164
1686.00,-0.1163
1684.00,-0.1162
1682.00,-0.1163
1680.00,-0.1163
1678.00,-0.1165
1676.00,-0.1164
1674.00,-0.1164
1672.00,-0.1162
1670.00,-0.1162
1668.00,-0.1163
1666.00,-0.1162
1664.00,-0.1162
1662.00,-0.1161
1660.00,-0.1160
1658.00,-0.1160
1656.00,-0.1162
1654.00,-0.1162
1652.00,-0.1160
1650.00,-0.1157
1648.00,-0.1157
1646.00,-0.1159
1644.00,-0.1159
1642.00,-0.1160
1640.00,-0.1162
1638.00,-0.1162
1636.00,-0.1161
1634.00,-0.1160
1632.00,-0.1160
1630.00,-0.1159
1628.00,-0.1160
1626.00,-0.1160
1624.00,-0.1159
1622.00,-0.1160
1620.00,-0.1160
1618.00,-0.1160
1616.00,-0.1160
1614.00,-0.1161
1612.00,-0.1161
1610.00,-0.1162
1608.00,-0.1164
1606.00,-0.1165
1604.00,-0.1165
1602.00,-0.1165
1600.00,-0.1165
1598.00,-0.1165
1596.00,-0.1165
1594.00,-0.1164
1592.00,-0.1164
1590.00,-0.1164
1588.00,-0.1165
1586.00,-0.1166
1584.00,-0.1166
1582.00,-0.1166
1580.00,-0.1167
1578.00,-0.1167
1576.00,-0.1165
1574.00,-0.1163
1572.00,-0.1163
1570.00,-0.1163
1568.00,-0.1161
1566.00,-0.1159
1564.00,-0.1160
1562.00,-0.1161
1560.00,-0.1157
1558.00,-0.1156
1556.00,-0.1156
1554.00,-0.1157
1552.00,-0.1158
1550.00,-0.1160
1548.00,-0.1161
1546.00,-0.1161
1544.00,-0.1163
1542.00,-0.1162
1540.00,-0.1160
1538.00,-0.1159
1536.00,-0.1160
1534.00,-0.1160
1532.00,-0.1160
1530.00,-0.1158
1528.00,-0.1158
1526.00,-0.1158
1524.00,-0.1157
1522.00,-0.1156
1520.00,-0.1156
1518.00,-0.1156
1516.00,-0.1157
1514.00,-0.1156
1512.00,-0.1156
1510.00,-0.1156
1508.00,-0.1155
1506.00,-0.1154
1504.00,-0.1153
1502.00,-0.1154
1500.00,-0.1156
1498.00,-0.1156
1496.00,-0.1155
1494.00,-0.1154
1492.00,-0.1153
1490.00,-0.1153
1488.00,-0.1154
1486.00,-0.1154
1484.00,-0.1154
1482.00,-0.1154
1480.00,-0.1153
1478.00,-0.1152
1476.00,-0.1150
1474.00,-0.1148
1472.00,-0.1147
1470.00,-0.1148
1468.00,-0.1149
1466.00,-0.1151
1464.00,-0.1150
1462.00,-0.1149
1460.00,-0.1149
1458.00,-0.1148
1456.00,-0.1146
1454.00,-0.1145
1452.00,-0.1145
1450.00,-0.1144
1448.00,-0.1145
1446.00,-0.1147
1444.00,-0.1148
1442.00,-0.1148
1440.00,-0.1148
1438.00,-0.1148
1436.00,-0.1148
1434.00,-0.1148
1432.00,-0.1149
1430.00,-0.1150
1428.00,-0.1151
1426.00,-0.1151
1424.00,-0.1151
1422.00,-0.1153
1420.00,-0.1154
1418.00,-0.1154
1416.00,-0.1152
1414.00,-0.1153
1412.00,-0.1152
1410.00,-0.1152
1408.00,-0.1150
1406.00,-0.1148
1404.00,-0.1145
1402.00,-0.1139
1400.00,-0.1131
1398.00,-0.1121
1396.00,-0.1112
1394.00,-0.1105
1392.00,-0.1103
1390.00,-0.1106
1388.00,-0.1109
1386.00,-0.1108
1384.00,-0.1106
1382.00,-0.1105
1380.00,-0.1107
1378.00,-0.1111
1376.00,-0.1118
1374.00,-0.1126
1372.00,-0.1132
1370.00,-0.1135
1368.00,-0.1135
1366.00,-0.1131
1364.00,-0.1126
1362.00,-0.1122
1360.00,-0.1120
1358.00,-0.1123
1356.00,-0.1129
1354.00,-0.1129
1352.00,-0.1128
1350.00,-0.1127
1348.00,-0.1126
1346.00,-0.1129
1344.00,-0.1136
1342.00,-0.1144
1340.00,-0.1151
1338.00,-0.1157
1336.00,-0.1160
1334.00,-0.1162
1332.00,-0.1163
1330.00,-0.1163
1328.00,-0.1164
1326.00,-0.1163
1324.00,-0.1163
1322.00,-0.1162
1320.00,-0.1161
1318.00,-0.1161
1316.00,-0.1160
1314.00,-0.1159
1312.00,-0.1158
1310.00,-0.1157
1308.00,-0.1156
1306.00,-0.1156
1304.00,-0.1156
1302.00,-0.1155
1300.00,-0.1155
1298.00,-0.1154
1296.00,-0.1154
1294.00,-0.1153
1292.00,-0.1153
1290.00,-0.1153
1288.00,-0.1154
1286.00,-0.1154
1284.00,-0.1154
1282.00,-0.1155
1280.00,-0.1156
1278.00,-0.1156
1276.00,-0.1157
1274.00,-0.1158
1272.00,-0.1159
1270.00,-0.1159
1268.00,-0.1159
1266.00,-0.1159
1264.00,-0.1158
1262.00,-0.1158
1260.00,-0.1157
1258.00,-0.1157
1256.00,-0.1157
1254.00,-0.1158
1252.00,-0.1158
1250.00,-0.1158
1248.00,-0.1158
1246.00,-0.1159
1244.00,-0.1159
1242.00,-0.1159
1240.00,-0.1160
1238.00,-0.1160
1236.00,-0.1160
1234.00,-0.1159
1232.00,-0.1159
1230.00,-0.1159
1228.00,-0.1159
1226.00,-0.1158
1224.00,-0.1158
1222.00,-0.1157
1220.00,-0.1157
1218.00,-0.1157
1216.00,-0.1157
1214.00,-0.1157
1212.00,-0.1156
1210.00,-0.1155
1208.00,-0.1154
1206.00,-0.1152
1204.00,-0.1150
1202.00,-0.1148
1200.00,-0.1145
1198.00,-0.1142
1196.00,-0.1140
1194.00,-0.1138
1192.00,-0.1136
1190.00,-0.1135
1188.00,-0.1133
1186.00,-0.1131
1184.00,-0.1129
1182.00,-0.1126
1180.00,-0.1124
1178.00,-0.1122
1176.00,-0.1119
1174.00,-0.1115
1172.00,-0.1111
1170.00,-0.1105
1168.00,-0.1099
1166.00,-0.1093
1164.00,-0.1086
1162.00,-0.1081
1160.00,-0.1077
1158.00,-0.1074
1156.00,-0.1068
1154.00,-0.1055
1152.00,-0.1028
1150.00,-0.0982
1148.00,-0.0922
1146.00,-0.0864
1144.00,-0.0829
1142.00,-0.0822
1140.00,-0.0831
1138.00,-0.0842
1136.00,-0.0847
1134.00,-0.0855
1132.00,-0.0867
1130.00,-0.0883
1128.00,-0.0907
1126.00,-0.0939
1124.00,-0.0973
1122.00,-0.1007
1120.00,-0.1037
1118.00,-0.1063
1116.00,-0.1082
1114.00,-0.1097
1112.00,-0.1109
1110.00,-0.1117
1108.00,-0.1123
1106.00,-0.1128
1104.00,-0.1132
1102.00,-0.1135
1100.00,-0.1137
1098.00,-0.1138
1096.00,-0.1138
1094.00,-0.1136
1092.00,-0.1134
1090.00,-0.1130
1088.00,-0.1126
1086.00,-0.1124
1084.00,-0.1124
1082.00,-0.1123
1080.00,-0.1122
1078.00,-0.1121
1076.00,-0.1119
1074.00,-0.1118
1072.00,-0.1119
1070.00,-0.1121
1068.00,-0.1124
1066.00,-0.1127
1064.00,-0.1131
1062.00,-0.1133
1060.00,-0.1135
1058.00,-0.1137
1056.00,-0.1138
1054.00,-0.1139
1052.00,-0.1139
1050.00,-0.1140
1048.00,-0.1141
1046.00,-0.1142
1044.00,-0.1142
1042.00,-0.1142
1040.00,-0.1143
1038.00,-0.1143
1036.00,-0.1143
1034.00,-0.1143
1032.00,-0.1144
1030.00,-0.1146
1028.00,-0.1148
1026.00,-0.1149
1024.00,-0.1150
1022.00,-0.1151
1020.00,-0.1152
1018.00,-0.1153
1016.00,-0.1154
1014.00,-0.1155
1012.00,-0.1156
1010.00,-0.1157
1008.00,-0.1158
1006.00,-0.1158
1004.00,-0.1159
1002.00,-0.1160
1000.00,-0.1161
998.00,-0.1162
996.00,-0.1163
994.00,-0.1164
992.00,-0.1165
990.00,-0.1165
988.00,-0.1166
986.00,-0.1166
984.00,-0.1167
982.00,-0.1167
980.00,-0.1167
978.00,-0.1167
976.00,-0.1167
974.00,-0.1168
972.00,-0.1168
970.00,-0.1168
968.00,-0.1169
966.00,-0.1169
964.00,-0.1170
962.00,-0.1170
960.00,-0.1170
958.00,-0.1170
956.00,-0.1170
954.00,-0.1170
952.00,-0.1169
950.00,-0.1168
948.00,-0.1166
946.00,-0.1165
944.00,-0.1164
942.00,-0.1164
940.00,-0.1165
938.00,-0.1165
936.00,-0.1165
934.00,-0.1165
932.00,-0.1165
930.00,-0.1165
928.00,-0.1165
926.00,-0.1166
924.00,-0.1167
922.00,-0.1168
920.00,-0.1168
918.00,-0.1169
916.00,-0.1169
914.00,-0.1169
912.00,-0.1169
910.00,-0.1170
908.00,-0.1171
906.00,-0.1172
904.00,-0.1173
902.00,-0.1173
900.00,-0.1173
898.00,-0.1174
896.00,-0.1174
894.00,-0.1175
892.00,-0.1174
890.00,-0.1175
888.00,-0.1176
886.00,-0.1175
884.00,-0.1174
882.00,-0.1173
880.00,-0.1173
878.00,-0.1173
876.00,-0.1173
874.00,-0.1173
872.00,-0.1173
870.00,-0.1173
868.00,-0.1172
866.00,-0.1172
864.00,-0.1172
862.00,-0.1171
860.00,-0.1170
858.00,-0.1169
856.00,-0.1169
854.00,-0.1168
852.00,-0.1169
850.00,-0.1169
848.00,-0.1169
846.00,-0.1169
844.00,-0.1168
842.00,-0.1169
840.00,-0.1169
838.00,-0.1169
836.00,-0.1169
834.00,-0.1170
832.00,-0.1170
830.00,-0.1171
828.00,-0.1171
826.00,-0.1171
824.00,-0.1171
822.00,-0.1171
820.00,-0.1171
818.00,-0.1171
816.00,-0.1172
814.00,-0.1172
812.00,-0.1172
810.00,-0.1173
808.00,-0.1173
806.00,-0.1173
804.00,-0.1174
802.00,-0.1174
800.00,-0.1174
798.00,-0.1174
796.00,-0.1174
794.00,-0.1173
792.00,-0.1173
790.00,-0.1174
788.00,-0.1174
786.00,-0.1174
784.00,-0.1174
782.00,-0.1175
780.00,-0.1175
778.00,-0.1176
776.00,-0.1176
774.00,-0.1175
772.00,-0.1176
770.00,-0.1176
768.00,-0.1176
766.00,-0.1176
764.00,-0.1176
762.00,-0.1175
760.00,-0.1175
758.00,-0.1175
756.00,-0.1175
754.00,-0.1175
752.00,-0.1175
750.00,-0.1175
748.00,-0.1175
746.00,-0.1176
744.00,-0.1176
742.00,-0.1175
740.00,-0.1175
738.00,-0.1176
736.00,-0.1176
734.00,-0.1175
732.00,-0.1175
730.00,-0.1176
728.00,-0.1175
726.00,-0.1175
724.00,-0.1175
722.00,-0.1176
720.00,-0.1175
718.00,-0.1175
716.00,-0.1175
714.00,-0.1176
712.00,-0.1175
710.00,-0.1176
708.00,-0.1175
706.00,-0.1175
704.00,-0.1175
702.00,-0.1176
700.00,-0.1175
698.00,-0.1175
696.00,-0.1175
694.00,-0.1175
692.00,-0.1175
690.00,-0.1175
688.00,-0.1175
686.00,-0.1175
684.00,-0.1176
682.00,-0.1176
680.00,-0.1176
678.00,-0.1176
676.00,-0.1175
674.00,-0.1175
672.00,-0.1175
670.00,-0.1176
668.00,-0.1168
666.00,-0.1165
664.00,-0.1172
662.00,-0.1174
660.00,-0.1174
658.00,-0.1174
656.00,-0.1174
654.00,-0.1174
652.00,-0.1174
650.00,-0.1174
648.00,-0.1173
646.00,-0.1172
644.00,-0.1172
642.00,-0.1172
640.00,-0.1171
638.00,-0.1171
636.00,-0.1171
634.00,-0.1171
632.00,-0.1170
630.00,-0.1170
628.00,-0.1170
626.00,-0.1170
624.00,-0.1170
622.00,-0.1170
620.00,-0.1170
618.00,-0.1170
616.00,-0.1170
614.00,-0.1169
612.00,-0.1169
610.00,-0.1169
608.00,-0.1170
606.00,-0.1169
604.00,-0.1169
602.00,-0.1169
600.00,-0.1170
598.00,-0.1170
596.00,-0.1170
594.00,-0.1170
592.00,-0.1169
590.00,-0.1170
588.00,-0.1170
586.00,-0.1169
584.00,-0.1169
582.00,-0.1168
580.00,-0.1169
578.00,-0.1168
576.00,-0.1166
574.00,-0.1166
572.00,-0.1166
570.00,-0.1166
568.00,-0.1165
566.00,-0.1165
564.00,-0.1166
562.00,-0.1165
560.00,-0.1164
558.00,-0.1165
556.00,-0.1165
554.00,-0.1166
552.00,-0.1165
550.00,-0.1165
548.00,-0.1166
546.00,-0.1166
544.00,-0.1166
542.00,-0.1165
540.00,-0.1166
538.00,-0.1168
536.00,-0.1168
534.00,-0.1168
532.00,-0.1168
530.00,-0.1169
528.00,-0.1169
526.00,-0.1168
524.00,-0.1169
522.00,-0.1171
520.00,-0.1170
518.00,-0.1170
516.00,-0.1171
514.00,-0.1172
512.00,-0.1173
510.00,-0.1174
508.00,-0.1174
506.00,-0.1175
504.00,-0.1176
502.00,-0.1176
500.00,-0.1176
