Created as New Dataset,Sample 042 By Analyst Date Wednesday, April 02 2025
cm-1,A
4000.00,-0.1175
3998.00,-0.1175
3996.00,-0.1175
3994.00,-0.1175
3992.00,-0.1175
3990.00,-0.1175
3988.00,-0.1175
3986.00,-0.1174
3984.00,-0.1173
3982.00,-0.1173
3980.00,-0.1173
3978.00,-0.1172
3976.00,-0.1171
3974.00,-0.1171
3972.00,-0.1171
3970.00,-0.1171
3968.00,-0.1171
3966.00,-0.1171
3964.00,-0.1171
3962.00,-0.1171
3960.00,-0.1171
3958.00,-0.1171
3956.00,-0.1171
3954.00,-0.1170
3952.00,-0.1169
3950.00,-0.1168
3948.00,-0.1167
3946.00,-0.1167
3944.00,-0.1166
3942.00,-0.1167
3940.00,-0.1168
3938.00,-0.1167
3936.00,-0.1167
3934.00,-0.1166
3932.00,-0.1166
3930.00,-0.1166
3928.00,-0.1166
3926.00,-0.1165
3924.00,-0.1166
3922.00,-0.1165
3920.00,-0.1162
3918.00,-0.1162
3916.00,-0.1163
3914.00,-0.1164
3912.00,-0.1164
3910.00,-0.1165
3908.00,-0.1163
3906.00,-0.1161
3904.00,-0.1157
3902.00,-0.1154
3900.00,-0.1154
3898.00,-0.1158
3896.00,-0.1159
3894.00,-0.1161
3892.00,-0.1162
3890.00,-0.1161
3888.00,-0.1158
3886.00,-0.1155
3884.00,-0.1156
3882.00,-0.1155
3880.00,-0.1156
3878.00,-0.1158
3876.00,-0.1156
3874.00,-0.1157
3872.00,-0.1158
3870.00,-0.1153
3868.00,-0.1154
3866.00,-0.1152
3864.00,-0.1154
3862.00,-0.1156
3860.00,-0.1155
3858.00,-0.1158
3856.00,-0.1160
3854.00,-0.1154
3852.00,-0.1150
3850.00,-0.1148
3848.00,-0.1150
3846.00,-0.1154
3844.00,-0.1154
3842.00,-0.1154
3840.00,-0.1152
3838.00,-0.1150
3836.00,-0.1148
3834.00,-0.1149
3832.00,-0.1151
3830.00,-0.1153
3828.00,-0.1153
3826.00,-0.1153
3824.00,-0.1152
3822.00,-0.1147
3820.00,-0.1148
3818.00,-0.1147
3816.00,-0.1146
3814.00,-0.1151
3812.00,-0.1152
3810.00,-0.1154
3808.00,-0.1153
3806.00,-0.1152
3804.00,-0.1150
3802.00,-0.1147
3800.00,-0.1149
3798.00,-0.1147
3796.00,-0.1149
3794.00,-0.1154
3792.00,-0.1154
3790.00,-0.1156
3788.00,-0.1156
3786.00,-0.1155
3784.00,-0.1155
3782.00,-0.1154
3780.00,-0.1153
3778.00,-0.1155
3776.00,-0.1155
3774.00,-0.1155
3772.00,-0.1155
3770.00,-0.1153
3768.00,-0.1152
3766.00,-0.1151
3764.00,-0.1152
3762.00,-0.1150
3760.00,-0.1149
3758.00,-0.1149
3756.00,-0.1147
3754.00,-0.1144
3752.00,-0.1140
3750.00,-0.1136
3748.00,-0.1134
3746.00,-0.1133
3744.00,-0.1133
3742.00,-0.1136
3740.00,-0.1133
3738.00,-0.1132
3736.00,-0.1132
3734.00,-0.1134
3732.00,-0.1134
3730.00,-0.1136
3728.00,-0.1137
3726.00,-0.1139
3724.00,-0.1140
3722.00,-0.1141
3720.00,-0.1143
3718.00,-0.1144
3716.00,-0.1144
3714.00,-0.1142
3712.00,-0.1140
3710.00,-0.1140
3708.00,-0.1142
3706.00,-0.1145
3704.00,-0.1147
3702.00,-0.1150
3700.00,-0.1152
3698.00,-0.1152
3696.00,-0.1153
3694.00,-0.1153
3692.00,-0.1152
3690.00,-0.1152
3688.00,-0.1151
3686.00,-0.1152
3684.00,-0.1155
3682.00,-0.1158
3680.00,-0.1158
3678.00,-0.1156
3676.00,-0.1150
3674.00,-0.1150
3672.00,-0.1146
3670.00,-0.1147
3668.00,-0.1153
3666.00,-0.1155
3664.00,-0.1157
3662.00,-0.1159
3660.00,-0.1159
3658.00,-0.1157
3656.00,-0.1154
3654.00,-0.1151
3652.00,-0.1144
3650.00,-0.1142
3648.00,-0.1142
3646.00,-0.1144
3644.00,-0.1148
3642.00,-0.1153
3640.00,-0.1156
3638.00,-0.1155
3636.00,-0.1154
3634.00,-0.1152
3632.00,-0.1150
3630.00,-0.1145
3628.00,-0.1145
3626.00,-0.1146
3624.00,-0.1147
3622.00,-0.1151
3620.00,-0.1152
3618.00,-0.1151
3616.00,-0.1149
3614.00,-0.1148
3612.00,-0.1150
3610.00,-0.1148
3608.00,-0.1149
3606.00,-0.1152
3604.00,-0.1153
3602.00,-0.1154
3600.00,-0.1155
3598.00,-0.1154
3596.00,-0.1154
3594.00,-0.1154
3592.00,-0.1154
3590.00,-0.1151
3588.00,-0.1151
3586.00,-0.1153
3584.00,-0.1154
3582.00,-0.1157
3580.00,-0.1159
3578.00,-0.1161
3576.00,-0.1161
3574.00,-0.1160
3572.00,-0.1159
3570.00,-0.1155
3568.00,-0.1152
3566.00,-0.1154
3564.00,-0.1155
3562.00,-0.1157
3560.00,-0.1161
3558.00,-0.1163
3556.00,-0.1164
3554.00,-0.1164
3552.00,-0.1164
3550.00,-0.1163
3548.00,-0.1161
3546.00,-0.1160
3544.00,-0.1161
3542.00,-0.1162
3540.00,-0.1163
3538.00,-0.1163
3536.00,-0.1163
3534.00,-0.1163
3532.00,-0.1163
3530.00,-0.1163
3528.00,-0.1162
3526.00,-0.1162
3524.00,-0.1162
3522.00,-0.1163
3520.00,-0.1164
3518.00,-0.1164
3516.00,-0.1164
3514.00,-0.1164
3512.00,-0.1163
3510.00,-0.1162
3508.00,-0.1162
3506.00,-0.1161
3504.00,-0.1160
3502.00,-0.1160
3500.00,-0.1161
3498.00,-0.1162
3496.00,-0.1163
3494.00,-0.1163
3492.00,-0.1164
3490.00,-0.1164
3488.00,-0.1164
3486.00,-0.1164
3484.00,-0.1164
3482.00,-0.1164
3480.00,-0.1164
3478.00,-0.1164
3476.00,-0.1165
3474.00,-0.1165
3472.00,-0.1165
3470.00,-0.1165
3468.00,-0.1166
3466.00,-0.1167
3464.00,-0.1168
3462.00,-0.1169
3460.00,-0.1170
3458.00,-0.1170
3456.00,-0.1171
3454.00,-0.1172
3452.00,-0.1171
3450.00,-0.1171
3448.00,-0.1171
3446.00,-0.1171
3444.00,-0.1171
3442.00,-0.1172
3440.00,-0.1172
3438.00,-0.1173
3436.00,-0.1173
3434.00,-0.1174
3432.00,-0.1174
3430.00,-0.1175
3428.00,-0.1175
3426.00,-0.1175
3424.00,-0.1174
3422.00,-0.1174
3420.00,-0.1173
3418.00,-0.1172
3416.00,-0.1171
3414.00,-0.1170
3412.00,-0.1169
3410.00,-0.1168
3408.00,-0.1168
3406.00,-0.1167
3404.00,-0.1166
3402.00,-0.1165
3400.00,-0.1164
3398.00,-0.1164
3396.00,-0.1163
3394.00,-0.1162
3392.00,-0.1162
3390.00,-0.1161
3388.00,-0.1161
3386.00,-0.1160
3384.00,-0.1159
3382.00,-0.1159
3380.00,-0.1158
3378.00,-0.1158
3376.00,-0.1158
3374.00,-0.1158
3372.00,-0.1157
3370.00,-0.1157
3368.00,-0.1157
3366.00,-0.1158
3364.00,-0.1158
3362.00,-0.1158
3360.00,-0.1158
3358.00,-0.1158
3356.00,-0.1157
3354.00,-0.1157
3352.00,-0.1156
3350.00,-0.1157
3348.00,-0.1157
3346.00,-0.1157
3344.00,-0.1157
3342.00,-0.1158
3340.00,-0.1158
3338.00,-0.1159
3336.00,-0.1159
3334.00,-0.1160
3332.00,-0.1160
3330.00,-0.1161
3328.00,-0.1161
3326.00,-0.1160
3324.00,-0.1160
3322.00,-0.1161
3320.00,-0.1161
3318.00,-0.1161
3316.00,-0.1161
3314.00,-0.1162
3312.00,-0.1163
3310.00,-0.1164
3308.00,-0.1165
3306.00,-0.1167
3304.00,-0.1169
3302.00,-0.1170
3300.00,-0.1170
3298.00,-0.1169
3296.00,-0.1167
3294.00,-0.1165
3292.00,-0.1163
3290.00,-0.1161
3288.00,-0.1160
3286.00,-0.1159
3284.00,-0.1158
3282.00,-0.1158
3280.00,-0.1157
3278.00,-0.1157
3276.00,-0.1156
3274.00,-0.1156
3272.00,-0.1156
3270.00,-0.1156
3268.00,-0.1156
3266.00,-0.1156
3264.00,-0.1155
3262.00,-0.1155
3260.00,-0.1154
3258.00,-0.1154
3256.00,-0.1154
3254.00,-0.1154
3252.00,-0.1154
3250.00,-0.1154
3248.00,-0.1154
3246.00,-0.1155
3244.00,-0.1156
3242.00,-0.1156
3240.00,-0.1156
3238.00,-0.1157
3236.00,-0.1156
3234.00,-0.1156
3232.00,-0.1156
3230.00,-0.1156
3228.00,-0.1156
3226.00,-0.1156
3224.00,-0.1156
3222.00,-0.1157
3220.00,-0.1157
3218.00,-0.1157
3216.00,-0.1158
3214.00,-0.1159
3212.00,-0.1160
3210.00,-0.1160
3208.00,-0.1161
3206.00,-0.1161
3204.00,-0.1161
3202.00,-0.1162
3200.00,-0.1161
3198.00,-0.1161
3196.00,-0.1161
3194.00,-0.1161
3192.00,-0.1161
3190.00,-0.1161
3188.00,-0.1161
3186.00,-0.1162
3184.00,-0.1162
3182.00,-0.1163
3180.00,-0.1163
3178.00,-0.1164
3176.00,-0.1164
3174.00,-0.1164
3172.00,-0.1164
3170.00,-0.1163
3168.00,-0.1163
3166.00,-0.1163
3164.00,-0.1162
3162.00,-0.1162
3160.00,-0.1162
3158.00,-0.1162
3156.00,-0.1163
3154.00,-0.1162
3152.00,-0.1163
3150.00,-0.1163
3148.00,-0.1164
3146.00,-0.1164
3144.00,-0.1164
3142.00,-0.1164
3140.00,-0.1163
3138.00,-0.1163
3136.00,-0.1163
3134.00,-0.1163
3132.00,-0.1163
3130.00,-0.1163
3128.00,-0.1163
3126.00,-0.1163
3124.00,-0.1164
3122.00,-0.1164
3120.00,-0.1164
3118.00,-0.1165
3116.00,-0.1166
3114.00,-0.1167
3112.00,-0.1167
3110.00,-0.1168
3108.00,-0.1168
3106.00,-0.1168
3104.00,-0.1168
3102.00,-0.1168
3100.00,-0.1168
3098.00,-0.1168
3096.00,-0.1168
3094.00,-0.1169
3092.00,-0.1169
3090.00,-0.1170
3088.00,-0.1171
3086.00,-0.1172
3084.00,-0.1173
3082.00,-0.1174
3080.00,-0.1175
3078.00,-0.1175
3076.00,-0.1176
3074.00,-0.1176
3072.00,-0.1176
3070.00,-0.1175
3068.00,-0.1174
3066.00,-0.1174
3064.00,-0.1175
3062.00,-0.1175
3060.00,-0.1175
3058.00,-0.1175
3056.00,-0.1175
3054.00,-0.1175
3052.00,-0.1175
3050.00,-0.1175
3048.00,-0.1175
3046.00,-0.1175
3044.00,-0.1175
3042.00,-0.1174
3040.00,-0.1174
3038.00,-0.1174
3036.00,-0.1173
3034.00,-0.1173
3032.00,-0.1173
3030.00,-0.1173
3028.00,-0.1173
3026.00,-0.1172
3024.00,-0.1171
3022.00,-0.1170
3020.00,-0.1168
3018.00,-0.1166
3016.00,-0.1162
3014.00,-0.1159
3012.00,-0.1155
3010.00,-0.1151
3008.00,-0.1147
3006.00,-0.1142
3004.00,-0.1137
3002.00,-0.1132
3000.00,-0.1126
2998.00,-0.1120
2996.00,-0.1114
2994.00,-0.1107
2992.00,-0.1099
2990.00,-0.1092
2988.00,-0.1093
2986.00,-0.1096
2984.00,-0.1098
2982.00,-0.1098
2980.00,-0.1098
2978.00,-0.1101
2976.00,-0.1105
2974.00,-0.1110
2972.00,-0.1116
2970.00,-0.1122
2968.00,-0.1127
2966.00,-0.1132
2964.00,-0.1137
2962.00,-0.1140
2960.00,-0.1141
2958.00,-0.1141
2956.00,-0.1141
2954.00,-0.1140
2952.00,-0.1139
2950.00,-0.1139
2948.00,-0.1138
2946.00,-0.1138
2944.00,-0.1138
2942.00,-0.1140
2940.00,-0.1142
2938.00,-0.1144
2936.00,-0.1145
2934.00,-0.1147
2932.00,-0.1148
2930.00,-0.1151
2928.00,-0.1154
2926.00,-0.1156
2924.00,-0.1156
2922.00,-0.1156
2920.00,-0.1156
2918.00,-0.1155
2916.00,-0.1154
2914.00,-0.1153
2912.00,-0.1151
2910.00,-0.1149
2908.00,-0.1147
2906.00,-0.1145
2904.00,-0.1143
2902.00,-0.1141
2900.00,-0.1138
2898.00,-0.1135
2896.00,-0.1132
2894.00,-0.1127
2892.00,-0.1122
2890.00,-0.1118
2888.00,-0.1113
2886.00,-0.1108
2884.00,-0.1104
2882.00,-0.1100
2880.00,-0.1096
2878.00,-0.1092
2876.00,-0.1089
2874.00,-0.1085
2872.00,-0.1082
2870.00,-0.1081
2868.00,-0.1084
2866.00,-0.1090
2864.00,-0.1095
2862.00,-0.1100
2860.00,-0.1104
2858.00,-0.1107
2856.00,-0.1110
2854.00,-0.1114
2852.00,-0.1118
2850.00,-0.1122
2848.00,-0.1127
2846.00,-0.1131
2844.00,-0.1136
2842.00,-0.1140
2840.00,-0.1143
2838.00,-0.1147
2836.00,-0.1150
2834.00,-0.1153
2832.00,-0.1155
2830.00,-0.1156
2828.00,-0.1157
2826.00,-0.1157
2824.00,-0.1157
2822.00,-0.1157
2820.00,-0.1157
2818.00,-0.1157
2816.00,-0.1157
2814.00,-0.1158
2812.00,-0.1159
2810.00,-0.1160
2808.00,-0.1160
2806.00,-0.1161
2804.00,-0.1161
2802.00,-0.1161
2800.00,-0.1162
2798.00,-0.1162
2796.00,-0.1162
2794.00,-0.1162
2792.00,-0.1161
2790.00,-0.1161
2788.00,-0.1161
2786.00,-0.1162
2784.00,-0.1162
2782.00,-0.1163
2780.00,-0.1163
2778.00,-0.1163
2776.00,-0.1164
2774.00,-0.1164
2772.00,-0.1165
2770.00,-0.1165
2768.00,-0.1165
2766.00,-0.1165
2764.00,-0.1165
2762.00,-0.1165
2760.00,-0.1165
2758.00,-0.1164
2756.00,-0.1164
2754.00,-0.1164
2752.00,-0.1165
2750.00,-0.1165
2748.00,-0.1165
2746.00,-0.1166
2744.00,-0.1167
2742.00,-0.1167
2740.00,-0.1168
2738.00,-0.1168
2736.00,-0.1168
2734.00,-0.1168
2732.00,-0.1168
2730.00,-0.1167
2728.00,-0.1166
2726.00,-0.1165
2724.00,-0.1165
2722.00,-0.1164
2720.00,-0.1164
2718.00,-0.1164
2716.00,-0.1164
2714.00,-0.1164
2712.00,-0.1164
2710.00,-0.1164
2708.00,-0.1165
2706.00,-0.1164
2704.00,-0.1164
2702.00,-0.1164
2700.00,-0.1164
2698.00,-0.1163
2696.00,-0.1163
2694.00,-0.1162
2692.00,-0.1162
2690.00,-0.1162
2688.00,-0.1162
2686.00,-0.1163
2684.00,-0.1164
2682.00,-0.1164
2680.00,-0.1165
2678.00,-0.1165
2676.00,-0.1166
2674.00,-0.1166
2672.00,-0.1166
2670.00,-0.1165
2668.00,-0.1165
2666.00,-0.1164
2664.00,-0.1163
2662.00,-0.1162
2660.00,-0.1161
2658.00,-0.1161
2656.00,-0.1161
2654.00,-0.1161
2652.00,-0.1161
2650.00,-0.1161
2648.00,-0.1161
2646.00,-0.1161
2644.00,-0.1161
2642.00,-0.1160
2640.00,-0.1160
2638.00,-0.1159
2636.00,-0.1159
2634.00,-0.1159
2632.00,-0.1158
2630.00,-0.1158
2628.00,-0.1158
2626.00,-0.1158
2624.00,-0.1159
2622.00,-0.1160
2620.00,-0.1160
2618.00,-0.1161
2616.00,-0.1161
2614.00,-0.1162
2612.00,-0.1162
2610.00,-0.1162
2608.00,-0.1161
2606.00,-0.1161
2604.00,-0.1161
2602.00,-0.1160
2600.00,-0.1160
2598.00,-0.1160
2596.00,-0.1160
2594.00,-0.1160
2592.00,-0.1160
2590.00,-0.1161
2588.00,-0.1161
2586.00,-0.1162
2584.00,-0.1162
2582.00,-0.1162
2580.00,-0.1162
2578.00,-0.1162
2576.00,-0.1161
2574.00,-0.1161
2572.00,-0.1160
2570.00,-0.1159
2568.00,-0.1159
2566.00,-0.1158
2564.00,-0.1158
2562.00,-0.1158
2560.00,-0.1158
2558.00,-0.1158
2556.00,-0.1159
2554.00,-0.1159
2552.00,-0.1158
2550.00,-0.1158
2548.00,-0.1158
2546.00,-0.1157
2544.00,-0.1156
2542.00,-0.1156
2540.00,-0.1155
2538.00,-0.1155
2536.00,-0.1155
2534.00,-0.1155
2532.00,-0.1155
2530.00,-0.1155
2528.00,-0.1155
2526.00,-0.1155
2524.00,-0.1155
2522.00,-0.1155
2520.00,-0.1155
2518.00,-0.1154
2516.00,-0.1154
2514.00,-0.1153
2512.00,-0.1152
2510.00,-0.1151
2508.00,-0.1151
2506.00,-0.1150
2504.00,-0.1149
2502.00,-0.1148
2500.00,-0.1148
2498.00,-0.1148
2496.00,-0.1148
2494.00,-0.1148
2492.00,-0.1148
2490.00,-0.1148
2488.00,-0.1148
2486.00,-0.1148
2484.00,-0.1148
2482.00,-0.1147
2480.00,-0.1146
2478.00,-0.1145
2476.00,-0.1145
2474.00,-0.1144
2472.00,-0.1144
2470.00,-0.1144
2468.00,-0.1144
2466.00,-0.1144
2464.00,-0.1144
2462.00,-0.1144
2460.00,-0.1144
2458.00,-0.1145
2456.00,-0.1145
2454.00,-0.1145
2452.00,-0.1145
2450.00,-0.1144
2448.00,-0.1144
2446.00,-0.1144
2444.00,-0.1145
2442.00,-0.1145
2440.00,-0.1145
2438.00,-0.1146
2436.00,-0.1147
2434.00,-0.1148
2432.00,-0.1149
2430.00,-0.1149
2428.00,-0.1150
2426.00,-0.1151
2424.00,-0.1152
2422.00,-0.1152
2420.00,-0.1152
2418.00,-0.1152
2416.00,-0.1152
2414.00,-0.1152
2412.00,-0.1152
2410.00,-0.1152
2408.00,-0.1151
2406.00,-0.1151
2404.00,-0.1151
2402.00,-0.1151
2400.00,-0.1151
2398.00,-0.1151
2396.00,-0.1151
2394.00,-0.1151
2392.00,-0.1150
2390.00,-0.1150
2388.00,-0.1150
2386.00,-0.1149
2384.00,-0.1149
2382.00,-0.1148
2380.00,-0.1149
2378.00,-0.1150
2376.00,-0.1151
2374.00,-0.1152
2372.00,-0.1153
2370.00,-0.1152
2368.00,-0.1151
2366.00,-0.1151
2364.00,-0.1151
2362.00,-0.1151
2360.00,-0.1151
2358.00,-0.1151
2356.00,-0.1151
2354.00,-0.1150
2352.00,-0.1150
2350.00,-0.1151
2348.00,-0.1149
2346.00,-0.1148
2344.00,-0.1149
2342.00,-0.1150
2340.00,-0.1150
2338.00,-0.1149
2336.00,-0.1150
2334.00,-0.1150
2332.00,-0.1150
2330.00,-0.1150
2328.00,-0.1150
2326.00,-0.1149
2324.00,-0.1147
2322.00,-0.1146
2320.00,-0.1146
2318.00,-0.1145
2316.00,-0.1144
2314.00,-0.1143
2312.00,-0.1143
2310.00,-0.1143
2308.00,-0.1144
2306.00,-0.1144
2304.00,-0.1144
2302.00,-0.1143
2300.00,-0.1143
2298.00,-0.1143
2296.00,-0.1142
2294.00,-0.1142
2292.00,-0.1141
2290.00,-0.1140
2288.00,-0.1140
2286.00,-0.1140
2284.00,-0.1140
2282.00,-0.1140
2280.00,-0.1140
2278.00,-0.1140
2276.00,-0.1141
2274.00,-0.1141
2272.00,-0.1142
2270.00,-0.1142
2268.00,-0.1142
2266.00,-0.1142
2264.00,-0.1142
2262.00,-0.1142
2260.00,-0.1141
2258.00,-0.1141
2256.00,-0.1140
2254.00,-0.1140
2252.00,-0.1140
2250.00,-0.1140
2248.00,-0.1140
2246.00,-0.1140
2244.00,-0.1140
2242.00,-0.1140
2240.00,-0.1140
2238.00,-0.1140
2236.00,-0.1139
2234.00,-0.1139
2232.00,-0.1138
2230.00,-0.1137
2228.00,-0.1136
2226.00,-0.1135
2224.00,-0.1134
2222.00,-0.1134
2220.00,-0.1134
2218.00,-0.1134
2216.00,-0.1134
2214.00,-0.1134
2212.00,-0.1134
2210.00,-0.1135
2208.00,-0.1135
2206.00,-0.1134
2204.00,-0.1134
2202.00,-0.1133
2200.00,-0.1132
2198.00,-0.1131
2196.00,-0.1131
2194.00,-0.1130
2192.00,-0.1129
2190.00,-0.1129
2188.00,-0.1128
2186.00,-0.1128
2184.00,-0.1128
2182.00,-0.1129
2180.00,-0.1129
2178.00,-0.1129
2176.00,-0.1129
2174.00,-0.1129
2172.00,-0.1130
2170.00,-0.1130
2168.00,-0.1130
2166.00,-0.1130
2164.00,-0.1130
2162.00,-0.1130
2160.00,-0.1130
2158.00,-0.1131
2156.00,-0.1131
2154.00,-0.1131
2152.00,-0.1132
2150.00,-0.1132
2148.00,-0.1132
2146.00,-0.1132
2144.00,-0.1132
2142.00,-0.1131
2140.00,-0.1131
2138.00,-0.1130
2136.00,-0.1129
2134.00,-0.1128
2132.00,-0.1127
2130.00,-0.1127
2128.00,-0.1127
2126.00,-0.1127
2124.00,-0.1127
2122.00,-0.1127
2120.00,-0.1127
2118.00,-0.1127
2116.00,-0.1128
2114.00,-0.1128
2112.00,-0.1128
2110.00,-0.1128
2108.00,-0.1128
2106.00,-0.1127
2104.00,-0.1127
2102.00,-0.1126
2100.00,-0.1126
2098.00,-0.1126
2096.00,-0.1126
2094.00,-0.1126
2092.00,-0.1127
2090.00,-0.1127
2088.00,-0.1128
2086.00,-0.1128
2084.00,-0.1129
2082.00,-0.1129
2080.00,-0.1129
2078.00,-0.1129
2076.00,-0.1129
2074.00,-0.1128
2072.00,-0.1128
2070.00,-0.1127
2068.00,-0.1127
2066.00,-0.1127
2064.00,-0.1127
2062.00,-0.1126
2060.00,-0.1126
2058.00,-0.1126
2056.00,-0.1127
2054.00,-0.1127
2052.00,-0.1127
2050.00,-0.1127
2048.00,-0.1127
2046.00,-0.1127
2044.00,-0.1127
2042.00,-0.1127
2040.00,-0.1127
2038.00,-0.1127
2036.00,-0.1127
2034.00,-0.1127
2032.00,-0.1128
2030.00,-0.1128
2028.00,-0.1128
2026.00,-0.1128
2024.00,-0.1128
2022.00,-0.1128
2020.00,-0.1127
2018.00,-0.1127
2016.00,-0.1127
2014.00,-0.1126
2012.00,-0.1126
2010.00,-0.1126
2008.00,-0.1126
2006.00,-0.1126
2004.00,-0.1126
2002.00,-0.1126
2000.00,-0.1127
1998.00,-0.1128
1996.00,-0.1129
1994.00,-0.1130
1992.00,-0.1132
1990.00,-0.1133
1988.00,-0.1133
1986.00,-0.1134
1984.00,-0.1135
1982.00,-0.1135
1980.00,-0.1136
1978.00,-0.1136
1976.00,-0.1136
1974.00,-0.1135
1972.00,-0.1135
1970.00,-0.1134
1968.00,-0.1134
1966.00,-0.1134
1964.00,-0.1134
1962.00,-0.1135
1960.00,-0.1137
1958.00,-0.1138
1956.00,-0.1140
1954.00,-0.1142
1952.00,-0.1143
1950.00,-0.1144
1948.00,-0.1145
1946.00,-0.1145
1944.00,-0.1144
1942.00,-0.1144
1940.00,-0.1142
1938.00,-0.1140
1936.00,-0.1138
1934.00,-0.1137
1932.00,-0.1136
1930.00,-0.1135
1928.00,-0.1135
1926.00,-0.1134
1924.00,-0.1134
1922.00,-0.1135
1920.00,-0.1134
1918.00,-0.1133
1916.00,-0.1134
1914.00,-0.1133
1912.00,-0.1132
1910.00,-0.1132
1908.00,-0.1132
1906.00,-0.1131
1904.00,-0.1131
1902.00,-0.1132
1900.00,-0.1132
1898.00,-0.1132
1896.00,-0.1133
1894.00,-0.1133
1892.00,-0.1133
1890.00,-0.1134
1888.00,-0.1135
1886.00,-0.1134
1884.00,-0.1135
1882.00,-0.1135
1880.00,-0.1136
1878.00,-0.1136
1876.00,-0.1137
1874.00,-0.1138
1872.00,-0.1138
1870.00,-0.1138
1868.00,-0.1140
1866.00,-0.1139
1864.00,-0.1139
1862.00,-0.1139
1860.00,-0.1140
1858.00,-0.1140
1856.00,-0.1141
1854.00,-0.1142
1852.00,-0.1143
1850.00,-0.1144
1848.00,-0.1146
1846.00,-0.1147
1844.00,-0.1148
1842.00,-0.1148
1840.00,-0.1148
1838.00,-0.1149
1836.00,-0.1150
1834.00,-0.1150
1832.00,-0.1150
1830.00,-0.1150
1828.00,-0.1150
1826.00,-0.1149
1824.00,-0.1150
1822.00,-0.1150
1820.00,-0.1150
1818.00,-0.1151
1816.00,-0.1152
1814.00,-0.1152
1812.00,-0.1153
1810.00,-0.1154
1808.00,-0.1155
1806.00,-0.1156
1804.00,-0.1157
1802.00,-0.1158
1800.00,-0.1159
1798.00,-0.1159
1796.00,-0.1156
1794.00,-0.1148
1792.00,-0.1151
1790.00,-0.1160
1788.00,-0.1161
1786.00,-0.1161
1784.00,-0.1162
1782.00,-0.1162
1780.00,-0.1163
1778.00,-0.1163
1776.00,-0.1164
1774.00,-0.1164
1772.00,-0.1164
1770.00,-0.1165
1768.00,-0.1164
1766.00,-0.1165
1764.00,-0.1164
1762.00,-0.1165
1760.00,-0.1164
1758.00,-0.1163
1756.00,-0.1163
1754.00,-0.1162
1752.00,-0.1159
1750.00,-0.1160
1748.00,-0.1162
1746.00,-0.1164
1744.00,-0.1165
1742.00,-0.1166
1740.00,-0.1165
1738.00,-0.1166
1736.00,-0.1165
1734.00,-0.1163
1732.00,-0.1162
1730.00,-0.1164
1728.00,-0.1165
1726.00,-0.1165
1724.00,-0.1165
1722.00,-0.1165
1720.00,-0.1165
1718.00,-0.1163
1716.00,-0.1162
1714.00,-0.1163
1712.00,-0.1164
1710.00,-0.1165
1708.00,-0.1165
1706.00,-0.1165
1704.00,-0.1167
1702.00,-0.1166
1700.00,-0.1164
1698.00,-0.1162
1696.00,-0.1161
1694.00,-0.1162
1692.00,-0.1161
1690.00,-0.1162
1688.00,-0.1164
1686.00,-0.1162
1684.00,-0.1162
1682.00,-0.1163
1680.00,-0.1163
1678.00,-0.1164
1676.00,-0.1163
1674.00,-0.1163
1672.00,-0.1161
1670.00,-0.1161
1668.00,-0.1162
1666.00,-0.1161
1664.00,-0.1160
1662.00,-0.1160
1660.00,-0.1159
1658.00,-0.1159
1656.00,-0.1162
1654.00,-0.1161
1652.00,-0.1160
1650.00,-0.1156
1648.00,-0.1156
1646.00,-0.1159
1644.00,-0.1158
1642.00,-0.1159
1640.00,-0.1160
1638.00,-0.1161
1636.00,-0.1160
1634.00,-0.1159
1632.00,-0.1158
1630.00,-0.1158
1628.00,-0.1158
1626.00,-0.1158
1624.00,-0.1158
1622.00,-0.1159
1620.00,-0.1159
1618.00,-0.1159
1616.00,-0.1159
1614.00,-0.1159
1612.00,-0.1160
1610.00,-0.1161
1608.00,-0.1163
1606.00,-0.1164
1604.00,-0.1164
1602.00,-0.1164
1600.00,-0.1164
1598.00,-0.1163
1596.00,-0.1163
1594.00,-0.1163
1592.00,-0.1163
1590.00,-0.1163
1588.00,-0.1164
1586.00,-0.1165
1584.00,-0.1165
1582.00,-0.1165
1580.00,-0.1166
1578.00,-0.1167
1576.00,-0.1164
1574.00,-0.1163
1572.00,-0.1162
1570.00,-0.1162
1568.00,-0.1161
1566.00,-0.1158
1564.00,-0.1159
1562.00,-0.1161
1560.00,-0.1156
1558.00,-0.1156
1556.00,-0.1156
1554.00,-0.1156
1552.00,-0.1158
1550.00,-0.1159
1548.00,-0.1160
1546.00,-0.1160
1544.00,-0.1162
1542.00,-0.1162
1540.00,-0.1160
1538.00,-0.1159
1536.00,-0.1159
1534.00,-0.1159
1532.00,-0.1160
1530.00,-0.1158
1528.00,-0.1158
1526.00,-0.1158
1524.00,-0.1157
1522.00,-0.1157
1520.00,-0.1157
1518.00,-0.1156
1516.00,-0.1157
1514.00,-0.1157
1512.00,-0.1156
1510.00,-0.1158
1508.00,-0.1157
1506.00,-0.1156
1504.00,-0.1155
1502.00,-0.1156
1500.00,-0.1157
1498.00,-0.1158
1496.00,-0.1157
1494.00,-0.1157
1492.00,-0.1156
1490.00,-0.1157
1488.00,-0.1158
1486.00,-0.1159
1484.00,-0.1159
1482.00,-0.1158
1480.00,-0.1158
1478.00,-0.1157
1476.00,-0.1156
1474.00,-0.1154
1472.00,-0.1153
1470.00,-0.1154
1468.00,-0.1155
1466.00,-0.1156
1464.00,-0.1156
1462.00,-0.1155
1460.00,-0.1156
1458.00,-0.1156
1456.00,-0.1154
1454.00,-0.1153
1452.00,-0.1153
1450.00,-0.1153
1448.00,-0.1153
1446.00,-0.1155
1444.00,-0.1154
1442.00,-0.1155
1440.00,-0.1155
1438.00,-0.1155
1436.00,-0.1154
1434.00,-0.1154
1432.00,-0.1155
1430.00,-0.1157
1428.00,-0.1157
1426.00,-0.1157
1424.00,-0.1157
1422.00,-0.1159
1420.00,-0.1158
1418.00,-0.1158
1416.00,-0.1157
1414.00,-0.1157
1412.00,-0.1157
1410.00,-0.1157
1408.00,-0.1156
1406.00,-0.1155
1404.00,-0.1153
1402.00,-0.1151
1400.00,-0.1146
1398.00,-0.1142
1396.00,-0.1137
1394.00,-0.1134
1392.00,-0.1133
1390.00,-0.1134
1388.00,-0.1136
1386.00,-0.1135
1384.00,-0.1134
1382.00,-0.1133
1380.00,-0.1134
1378.00,-0.1136
1376.00,-0.1140
1374.00,-0.1144
1372.00,-0.1148
1370.00,-0.1149
1368.00,-0.1149
1366.00,-0.1147
1364.00,-0.1145
1362.00,-0.1143
1360.00,-0.1142
1358.00,-0.1143
1356.00,-0.1145
1354.00,-0.1146
1352.00,-0.1145
1350.00,-0.1145
1348.00,-0.1144
1346.00,-0.1146
1344.00,-0.1149
1342.00,-0.1153
1340.00,-0.1157
1338.00,-0.1161
1336.00,-0.1162
1334.00,-0.1163
1332.00,-0.1164
1330.00,-0.1164
1328.00,-0.1164
1326.00,-0.1164
1324.00,-0.1164
1322.00,-0.1163
1320.00,-0.1162
1318.00,-0.1162
1316.00,-0.1161
1314.00,-0.1161
1312.00,-0.1160
1310.00,-0.1160
1308.00,-0.1160
1306.00,-0.1160
1304.00,-0.1160
1302.00,-0.1160
1300.00,-0.1159
1298.00,-0.1159
1296.00,-0.1159
1294.00,-0.1158
1292.00,-0.1158
1290.00,-0.1158
1288.00,-0.1158
1286.00,-0.1158
1284.00,-0.1158
1282.00,-0.1158
1280.00,-0.1159
1278.00,-0.1159
1276.00,-0.1160
1274.00,-0.1160
1272.00,-0.1161
1270.00,-0.1161
1268.00,-0.1161
1266.00,-0.1160
1264.00,-0.1160
1262.00,-0.1159
1260.00,-0.1159
1258.00,-0.1158
1256.00,-0.1158
1254.00,-0.1159
1252.00,-0.1159
1250.00,-0.1159
1248.00,-0.1159
1246.00,-0.1160
1244.00,-0.1160
1242.00,-0.1160
1240.00,-0.1160
1238.00,-0.1160
1236.00,-0.1161
1234.00,-0.1160
1232.00,-0.1160
1230.00,-0.1160
1228.00,-0.1160
1226.00,-0.1159
1224.00,-0.1159
1222.00,-0.1159
1220.00,-0.1159
1218.00,-0.1158
1216.00,-0.1158
1214.00,-0.1158
1212.00,-0.1158
1210.00,-0.1158
1208.00,-0.1157
1206.00,-0.1156
1204.00,-0.1155
1202.00,-0.1154
1200.00,-0.1152
1198.00,-0.1150
1196.00,-0.1149
1194.00,-0.1148
1192.00,-0.1147
1190.00,-0.1146
1188.00,-0.1146
1186.00,-0.1145
1184.00,-0.1144
1182.00,-0.1143
1180.00,-0.1142
1178.00,-0.1140
1176.00,-0.1139
1174.00,-0.1137
1172.00,-0.1135
1170.00,-0.1132
1168.00,-0.1128
1166.00,-0.1125
1164.00,-0.1121
1162.00,-0.1118
1160.00,-0.1116
1158.00,-0.1115
1156.00,-0.1111
1154.00,-0.1105
1152.00,-0.1091
1150.00,-0.1068
1148.00,-0.1037
1146.00,-0.1007
1144.00,-0.0989
1142.00,-0.0986
1140.00,-0.0990
1138.00,-0.0995
1136.00,-0.0998
1134.00,-0.1002
1132.00,-0.1008
1130.00,-0.1017
1128.00,-0.1029
1126.00,-0.1046
1124.00,-0.1063
1122.00,-0.1081
1120.00,-0.1097
1118.00,-0.1110
1116.00,-0.1120
1114.00,-0.1128
1112.00,-0.1133
1110.00,-0.1138
1108.00,-0.1141
1106.00,-0.1143
1104.00,-0.1144
1102.00,-0.1146
1100.00,-0.1146
1098.00,-0.1147
1096.00,-0.1147
1094.00,-0.1146
1092.00,-0.1145
1090.00,-0.1143
1088.00,-0.1141
1086.00,-0.1140
1084.00,-0.1140
1082.00,-0.1139
1080.00,-0.1139
1078.00,-0.1138
1076.00,-0.1137
1074.00,-0.1136
1072.00,-0.1136
1070.00,-0.1137
1068.00,-0.1138
1066.00,-0.1140
1064.00,-0.1141
1062.00,-0.1143
1060.00,-0.1144
1058.00,-0.1145
1056.00,-0.1146
1054.00,-0.1146
1052.00,-0.1146
1050.00,-0.1147
1048.00,-0.1147
1046.00,-0.1148
1044.00,-0.1148
1042.00,-0.1148
1040.00,-0.1149
1038.00,-0.1149
1036.00,-0.1149
1034.00,-0.1149
1032.00,-0.1149
1030.00,-0.1151
1028.00,-0.1152
1026.00,-0.1153
1024.00,-0.1154
1022.00,-0.1155
1020.00,-0.1156
1018.00,-0.1157
1016.00,-0.1157
1014.00,-0.1157
1012.00,-0.1158
1010.00,-0.1159
1008.00,-0.1159
1006.00,-0.1159
1004.00,-0.1160
1002.00,-0.1161
1000.00,-0.1162
998.00,-0.1162
996.00,-0.1163
994.00,-0.1164
992.00,-0.1165
990.00,-0.1165
988.00,-0.1166
986.00,-0.1166
984.00,-0.1166
982.00,-0.1166
980.00,-0.1166
978.00,-0.1166
976.00,-0.1167
974.00,-0.1167
972.00,-0.1167
970.00,-0.1167
968.00,-0.1168
966.00,-0.1169
964.00,-0.1169
962.00,-0.1169
960.00,-0.1170
958.00,-0.1170
956.00,-0.1170
954.00,-0.1170
952.00,-0.1169
950.00,-0.1169
948.00,-0.1168
946.00,-0.1167
944.00,-0.1166
942.00,-0.1167
940.00,-0.1167
938.00,-0.1167
936.00,-0.1168
934.00,-0.1168
932.00,-0.1168
930.00,-0.1168
928.00,-0.1169
926.00,-0.1169
924.00,-0.1170
922.00,-0.1170
920.00,-0.1170
918.00,-0.1170
916.00,-0.1170
914.00,-0.1171
912.00,-0.1171
910.00,-0.1171
908.00,-0.1171
906.00,-0.1172
904.00,-0.1173
902.00,-0.1173
900.00,-0.1173
898.00,-0.1174
896.00,-0.1174
894.00,-0.1174
892.00,-0.1174
890.00,-0.1174
888.00,-0.1175
886.00,-0.1175
884.00,-0.1173
882.00,-0.1173
880.00,-0.1173
878.00,-0.1173
876.00,-0.1173
874.00,-0.1173
872.00,-0.1173
870.00,-0.1173
868.00,-0.1173
866.00,-0.1173
864.00,-0.1173
862.00,-0.1173
860.00,-0.1173
858.00,-0.1172
856.00,-0.1172
854.00,-0.1171
852.00,-0.1171
850.00,-0.1172
848.00,-0.1172
846.00,-0.1172
844.00,-0.1172
842.00,-0.1172
840.00,-0.1172
838.00,-0.1172
836.00,-0.1172
834.00,-0.1173
832.00,-0.1173
830.00,-0.1173
828.00,-0.1172
826.00,-0.1172
824.00,-0.1172
822.00,-0.1172
820.00,-0.1172
818.00,-0.1172
816.00,-0.1173
814.00,-0.1173
812.00,-0.1173
810.00,-0.1173
808.00,-0.1173
806.00,-0.1174
804.00,-0.1174
802.00,-0.1174
800.00,-0.1174
798.00,-0.1174
796.00,-0.1174
794.00,-0.1174
792.00,-0.1174
790.00,-0.1174
788.00,-0.1174
786.00,-0.1174
784.00,-0.1174
782.00,-0.1175
780.00,-0.1175
778.00,-0.1175
776.00,-0.1176
774.00,-0.1175
772.00,-0.1175
770.00,-0.1176
768.00,-0.1176
766.00,-0.1176
764.00,-0.1175
762.00,-0.1175
760.00,-0.1174
758.00,-0.1174
756.00,-0.1175
754.00,-0.1175
752.00,-0.1175
750.00,-0.1175
748.00,-0.1175
746.00,-0.1175
744.00,-0.1175
742.00,-0.1174
740.00,-0.1174
738.00,-0.1175
736.00,-0.1175
734.00,-0.1175
732.00,-0.1175
730.00,-0.1175
728.00,-0.1175
726.00,-0.1174
724.00,-0.1175
722.00,-0.1175
720.00,-0.1175
718.00,-0.1175
716.00,-0.1175
714.00,-0.1175
712.00,-0.1175
710.00,-0.1175
708.00,-0.1175
706.00,-0.1175
704.00,-0.1175
702.00,-0.1175
700.00,-0.1175
698.00,-0.1175
696.00,-0.1174
694.00,-0.1174
692.00,-0.1174
690.00,-0.1174
688.00,-0.1174
686.00,-0.1174
684.00,-0.1175
682.00,-0.1175
680.00,-0.1174
678.00,-0.1175
676.00,-0.1174
674.00,-0.1174
672.00,-0.1174
670.00,-0.1177
668.00,-0.1181
666.00,-0.1175
664.00,-0.1172
662.00,-0.1173
660.00,-0.1173
658.00,-0.1172
656.00,-0.1173
654.00,-0.1172
652.00,-0.1172
650.00,-0.1172
648.00,-0.1172
646.00,-0.1171
644.00,-0.1171
642.00,-0.1171
640.00,-0.1171
638.00,-0.1170
636.00,-0.1170
634.00,-0.1170
632.00,-0.1170
630.00,-0.1170
628.00,-0.1169
626.00,-0.1169
624.00,-0.1170
622.00,-0.1169
620.00,-0.1168
618.00,-0.1169
616.00,-0.1170
614.00,-0.1169
612.00,-0.1168
610.00,-0.1168
608.00,-0.1169
606.00,-0.1168
604.00,-0.1168
602.00,-0.1169
600.00,-0.1169
598.00,-0.1169
596.00,-0.1169
594.00,-0.1169
592.00,-0.1169
590.00,-0.1170
588.00,-0.1170
586.00,-0.1168
584.00,-0.1168
582.00,-0.1168
580.00,-0.1168
578.00,-0.1167
576.00,-0.1166
574.00,-0.1166
572.00,-0.1166
570.00,-0.1166
568.00,-0.1165
566.00,-0.1164
564.00,-0.1164
562.00,-0.1163
560.00,-0.1163
558.00,-0.1163
556.00,-0.1164
554.00,-0.1165
552.00,-0.1164
550.00,-0.1164
548.00,-0.1165
546.00,-0.1165
544.00,-0.1165
542.00,-0.1164
540.00,-0.1165
538.00,-0.1166
536.00,-0.1167
534.00,-0.1167
532.00,-0.1167
530.00,-0.1168
528.00,-0.1168
526.00,-0.1168
524.00,-0.1169
522.00,-0.1170
520.00,-0.1170
518.00,-0.1170
516.00,-0.1171
514.00,-0.1171
512.00,-0.1172
510.00,-0.1174
508.00,-0.1175
506.00,-0.1175
504.00,-0.1175
502.00,-0.1176
500.00,-0.1175
