Created as New Dataset,Sample 018 By Analyst Date Thursday, March 27 2025
cm-1,A
4000.00,-0.0486
3999.00,-0.0486
3998.00,-0.0486
3997.00,-0.0486
3996.00,-0.0485
3995.00,-0.0485
3994.00,-0.0485
3993.00,-0.0485
3992.00,-0.0485
3991.00,-0.0485
3990.00,-0.0485
3989.00,-0.0485
3988.00,-0.0485
3987.00,-0.0485
3986.00,-0.0484
3985.00,-0.0484
3984.00,-0.0484
3983.00,-0.0484
3982.00,-0.0484
3981.00,-0.0484
3980.00,-0.0484
3979.00,-0.0483
3978.00,-0.0483
3977.00,-0.0483
3976.00,-0.0483
3975.00,-0.0483
3974.00,-0.0483
3973.00,-0.0483
3972.00,-0.0483
3971.00,-0.0483
3970.00,-0.0483
3969.00,-0.0483
3968.00,-0.0483
3967.00,-0.0483
3966.00,-0.0483
3965.00,-0.0483
3964.00,-0.0482
3963.00,-0.0482
3962.00,-0.0482
3961.00,-0.0483
3960.00,-0.0483
3959.00,-0.0483
3958.00,-0.0483
3957.00,-0.0483
3956.00,-0.0483
3955.00,-0.0483
3954.00,-0.0483
3953.00,-0.0482
3952.00,-0.0482
3951.00,-0.0482
3950.00,-0.0482
3949.00,-0.0481
3948.00,-0.0481
3947.00,-0.0481
3946.00,-0.0481
3945.00,-0.0481
3944.00,-0.0481
3943.00,-0.0481
3942.00,-0.0482
3941.00,-0.0483
3940.00,-0.0483
3939.00,-0.0482
3938.00,-0.0482
3937.00,-0.0482
3936.00,-0.0482
3935.00,-0.0481
3934.00,-0.0480
3933.00,-0.0479
3932.00,-0.0480
3931.00,-0.0480
3930.00,-0.0480
3929.00,-0.0480
3928.00,-0.0479
3927.00,-0.0479
3926.00,-0.0479
3925.00,-0.0479
3924.00,-0.0480
3923.00,-0.0480
3922.00,-0.0479
3921.00,-0.0478
3920.00,-0.0477
3919.00,-0.0477
3918.00,-0.0477
3917.00,-0.0477
3916.00,-0.0478
3915.00,-0.0479
3914.00,-0.0479
3913.00,-0.0479
3912.00,-0.0480
3911.00,-0.0480
3910.00,-0.0480
3909.00,-0.0480
3908.00,-0.0479
3907.00,-0.0478
3906.00,-0.0476
3905.00,-0.0474
3904.00,-0.0473
3903.00,-0.0471
3902.00,-0.0470
3901.00,-0.0469
3900.00,-0.0470
3899.00,-0.0471
3898.00,-0.0473
3897.00,-0.0474
3896.00,-0.0475
3895.00,-0.0475
3894.00,-0.0476
3893.00,-0.0477
3892.00,-0.0477
3891.00,-0.0477
3890.00,-0.0478
3889.00,-0.0477
3888.00,-0.0475
3887.00,-0.0473
3886.00,-0.0472
3885.00,-0.0473
3884.00,-0.0473
3883.00,-0.0473
3882.00,-0.0471
3881.00,-0.0471
3880.00,-0.0473
3879.00,-0.0475
3878.00,-0.0475
3877.00,-0.0474
3876.00,-0.0472
3875.00,-0.0472
3874.00,-0.0473
3873.00,-0.0474
3872.00,-0.0474
3871.00,-0.0471
3870.00,-0.0469
3869.00,-0.0469
3868.00,-0.0470
3867.00,-0.0470
3866.00,-0.0468
3865.00,-0.0467
3864.00,-0.0470
3863.00,-0.0472
3862.00,-0.0472
3861.00,-0.0472
3860.00,-0.0472
3859.00,-0.0473
3858.00,-0.0475
3857.00,-0.0477
3856.00,-0.0478
3855.00,-0.0476
3854.00,-0.0472
3853.00,-0.0470
3852.00,-0.0469
3851.00,-0.0468
3850.00,-0.0467
3849.00,-0.0468
3848.00,-0.0470
3847.00,-0.0472
3846.00,-0.0474
3845.00,-0.0474
3844.00,-0.0474
3843.00,-0.0473
3842.00,-0.0473
3841.00,-0.0472
3840.00,-0.0471
3839.00,-0.0470
3838.00,-0.0469
3837.00,-0.0468
3836.00,-0.0468
3835.00,-0.0469
3834.00,-0.0469
3833.00,-0.0470
3832.00,-0.0471
3831.00,-0.0472
3830.00,-0.0473
3829.00,-0.0473
3828.00,-0.0473
3827.00,-0.0473
3826.00,-0.0473
3825.00,-0.0474
3824.00,-0.0473
3823.00,-0.0470
3822.00,-0.0467
3821.00,-0.0467
3820.00,-0.0469
3819.00,-0.0470
3818.00,-0.0469
3817.00,-0.0466
3816.00,-0.0466
3815.00,-0.0469
3814.00,-0.0472
3813.00,-0.0472
3812.00,-0.0472
3811.00,-0.0472
3810.00,-0.0474
3809.00,-0.0475
3808.00,-0.0473
3807.00,-0.0472
3806.00,-0.0471
3805.00,-0.0471
3804.00,-0.0470
3803.00,-0.0467
3802.00,-0.0466
3801.00,-0.0467
3800.00,-0.0469
3799.00,-0.0469
3798.00,-0.0468
3797.00,-0.0468
3796.00,-0.0470
3795.00,-0.0473
3794.00,-0.0475
3793.00,-0.0476
3792.00,-0.0476
3791.00,-0.0477
3790.00,-0.0478
3789.00,-0.0478
3788.00,-0.0478
3787.00,-0.0478
3786.00,-0.0477
3785.00,-0.0477
3784.00,-0.0477
3783.00,-0.0477
3782.00,-0.0476
3781.00,-0.0475
3780.00,-0.0474
3779.00,-0.0475
3778.00,-0.0476
3777.00,-0.0477
3776.00,-0.0476
3775.00,-0.0476
3774.00,-0.0476
3773.00,-0.0476
3772.00,-0.0475
3771.00,-0.0474
3770.00,-0.0473
3769.00,-0.0473
3768.00,-0.0473
3767.00,-0.0472
3766.00,-0.0471
3765.00,-0.0472
3764.00,-0.0473
3763.00,-0.0473
3762.00,-0.0471
3761.00,-0.0470
3760.00,-0.0470
3759.00,-0.0471
3758.00,-0.0471
3757.00,-0.0470
3756.00,-0.0470
3755.00,-0.0469
3754.00,-0.0468
3753.00,-0.0466
3752.00,-0.0465
3751.00,-0.0463
3750.00,-0.0461
3749.00,-0.0459
3748.00,-0.0460
3747.00,-0.0460
3746.00,-0.0459
3745.00,-0.0458
3744.00,-0.0459
3743.00,-0.0461
3742.00,-0.0462
3741.00,-0.0460
3740.00,-0.0459
3739.00,-0.0459
3738.00,-0.0459
3737.00,-0.0458
3736.00,-0.0458
3735.00,-0.0460
3734.00,-0.0461
3733.00,-0.0461
3732.00,-0.0461
3731.00,-0.0463
3730.00,-0.0464
3729.00,-0.0465
3728.00,-0.0465
3727.00,-0.0465
3726.00,-0.0466
3725.00,-0.0467
3724.00,-0.0467
3723.00,-0.0467
3722.00,-0.0467
3721.00,-0.0468
3720.00,-0.0469
3719.00,-0.0469
3718.00,-0.0469
3717.00,-0.0469
3716.00,-0.0469
3715.00,-0.0469
3714.00,-0.0467
3713.00,-0.0465
3712.00,-0.0465
3711.00,-0.0465
3710.00,-0.0465
3709.00,-0.0466
3708.00,-0.0466
3707.00,-0.0467
3706.00,-0.0469
3705.00,-0.0470
3704.00,-0.0471
3703.00,-0.0472
3702.00,-0.0473
3701.00,-0.0474
3700.00,-0.0475
3699.00,-0.0475
3698.00,-0.0475
3697.00,-0.0475
3696.00,-0.0475
3695.00,-0.0476
3694.00,-0.0475
3693.00,-0.0474
3692.00,-0.0474
3691.00,-0.0474
3690.00,-0.0474
3689.00,-0.0473
3688.00,-0.0472
3687.00,-0.0473
3686.00,-0.0473
3685.00,-0.0474
3684.00,-0.0475
3683.00,-0.0476
3682.00,-0.0477
3681.00,-0.0477
3680.00,-0.0477
3679.00,-0.0477
3678.00,-0.0475
3677.00,-0.0472
3676.00,-0.0469
3675.00,-0.0469
3674.00,-0.0470
3673.00,-0.0469
3672.00,-0.0466
3671.00,-0.0465
3670.00,-0.0467
3669.00,-0.0471
3668.00,-0.0474
3667.00,-0.0475
3666.00,-0.0475
3665.00,-0.0476
3664.00,-0.0478
3663.00,-0.0480
3662.00,-0.0480
3661.00,-0.0480
3660.00,-0.0480
3659.00,-0.0479
3658.00,-0.0478
3657.00,-0.0477
3656.00,-0.0476
3655.00,-0.0475
3654.00,-0.0473
3653.00,-0.0469
3652.00,-0.0466
3651.00,-0.0463
3650.00,-0.0463
3649.00,-0.0463
3648.00,-0.0463
3647.00,-0.0464
3646.00,-0.0466
3645.00,-0.0468
3644.00,-0.0470
3643.00,-0.0472
3642.00,-0.0474
3641.00,-0.0477
3640.00,-0.0478
3639.00,-0.0478
3638.00,-0.0478
3637.00,-0.0477
3636.00,-0.0477
3635.00,-0.0476
3634.00,-0.0475
3633.00,-0.0475
3632.00,-0.0474
3631.00,-0.0472
3630.00,-0.0469
3629.00,-0.0469
3628.00,-0.0469
3627.00,-0.0470
3626.00,-0.0469
3625.00,-0.0469
3624.00,-0.0470
3623.00,-0.0471
3622.00,-0.0472
3621.00,-0.0472
3620.00,-0.0472
3619.00,-0.0471
3618.00,-0.0471
3617.00,-0.0470
3616.00,-0.0468
3615.00,-0.0467
3614.00,-0.0468
3613.00,-0.0469
3612.00,-0.0469
3611.00,-0.0469
3610.00,-0.0468
3609.00,-0.0468
3608.00,-0.0469
3607.00,-0.0471
3606.00,-0.0472
3605.00,-0.0473
3604.00,-0.0473
3603.00,-0.0474
3602.00,-0.0474
3601.00,-0.0475
3600.00,-0.0475
3599.00,-0.0475
3598.00,-0.0474
3597.00,-0.0474
3596.00,-0.0474
3595.00,-0.0474
3594.00,-0.0475
3593.00,-0.0475
3592.00,-0.0474
3591.00,-0.0473
3590.00,-0.0471
3589.00,-0.0470
3588.00,-0.0471
3587.00,-0.0472
3586.00,-0.0473
3585.00,-0.0474
3584.00,-0.0474
3583.00,-0.0475
3582.00,-0.0477
3581.00,-0.0478
3580.00,-0.0479
3579.00,-0.0480
3578.00,-0.0480
3577.00,-0.0480
3576.00,-0.0481
3575.00,-0.0481
3574.00,-0.0481
3573.00,-0.0480
3572.00,-0.0479
3571.00,-0.0477
3570.00,-0.0475
3569.00,-0.0473
3568.00,-0.0472
3567.00,-0.0473
3566.00,-0.0474
3565.00,-0.0474
3564.00,-0.0475
3563.00,-0.0475
3562.00,-0.0477
3561.00,-0.0478
3560.00,-0.0480
3559.00,-0.0481
3558.00,-0.0481
3557.00,-0.0481
3556.00,-0.0481
3555.00,-0.0480
3554.00,-0.0480
3553.00,-0.0480
3552.00,-0.0480
3551.00,-0.0480
3550.00,-0.0479
3549.00,-0.0477
3548.00,-0.0477
3547.00,-0.0476
3546.00,-0.0477
3545.00,-0.0478
3544.00,-0.0478
3543.00,-0.0479
3542.00,-0.0479
3541.00,-0.0480
3540.00,-0.0480
3539.00,-0.0480
3538.00,-0.0481
3537.00,-0.0481
3536.00,-0.0481
3535.00,-0.0481
3534.00,-0.0481
3533.00,-0.0481
3532.00,-0.0480
3531.00,-0.0480
3530.00,-0.0480
3529.00,-0.0480
3528.00,-0.0479
3527.00,-0.0479
3526.00,-0.0479
3525.00,-0.0479
3524.00,-0.0479
3523.00,-0.0480
3522.00,-0.0480
3521.00,-0.0481
3520.00,-0.0481
3519.00,-0.0481
3518.00,-0.0482
3517.00,-0.0482
3516.00,-0.0482
3515.00,-0.0482
3514.00,-0.0482
3513.00,-0.0481
3512.00,-0.0481
3511.00,-0.0481
3510.00,-0.0481
3509.00,-0.0481
3508.00,-0.0480
3507.00,-0.0480
3506.00,-0.0479
3505.00,-0.0479
3504.00,-0.0479
3503.00,-0.0479
3502.00,-0.0480
3501.00,-0.0480
3500.00,-0.0480
3499.00,-0.0480
3498.00,-0.0480
3497.00,-0.0480
3496.00,-0.0480
3495.00,-0.0481
3494.00,-0.0481
3493.00,-0.0481
3492.00,-0.0481
3491.00,-0.0481
3490.00,-0.0481
3489.00,-0.0481
3488.00,-0.0481
3487.00,-0.0481
3486.00,-0.0481
3485.00,-0.0481
3484.00,-0.0481
3483.00,-0.0481
3482.00,-0.0481
3481.00,-0.0482
3480.00,-0.0482
3479.00,-0.0482
3478.00,-0.0482
3477.00,-0.0483
3476.00,-0.0483
3475.00,-0.0483
3474.00,-0.0483
3473.00,-0.0483
3472.00,-0.0484
3471.00,-0.0484
3470.00,-0.0484
3469.00,-0.0484
3468.00,-0.0484
3467.00,-0.0484
3466.00,-0.0484
3465.00,-0.0484
3464.00,-0.0484
3463.00,-0.0484
3462.00,-0.0484
3461.00,-0.0484
3460.00,-0.0484
3459.00,-0.0484
3458.00,-0.0484
3457.00,-0.0484
3456.00,-0.0484
3455.00,-0.0484
3454.00,-0.0484
3453.00,-0.0484
3452.00,-0.0484
3451.00,-0.0483
3450.00,-0.0483
3449.00,-0.0483
3448.00,-0.0482
3447.00,-0.0482
3446.00,-0.0483
3445.00,-0.0483
3444.00,-0.0482
3443.00,-0.0483
3442.00,-0.0483
3441.00,-0.0483
3440.00,-0.0483
3439.00,-0.0483
3438.00,-0.0484
3437.00,-0.0484
3436.00,-0.0484
3435.00,-0.0484
3434.00,-0.0484
3433.00,-0.0484
3432.00,-0.0484
3431.00,-0.0485
3430.00,-0.0485
3429.00,-0.0485
3428.00,-0.0485
3427.00,-0.0485
3426.00,-0.0485
3425.00,-0.0485
3424.00,-0.0485
3423.00,-0.0485
3422.00,-0.0485
3421.00,-0.0485
3420.00,-0.0485
3419.00,-0.0485
3418.00,-0.0485
3417.00,-0.0485
3416.00,-0.0485
3415.00,-0.0485
3414.00,-0.0485
3413.00,-0.0485
3412.00,-0.0485
3411.00,-0.0484
3410.00,-0.0484
3409.00,-0.0484
3408.00,-0.0484
3407.00,-0.0484
3406.00,-0.0483
3405.00,-0.0483
3404.00,-0.0483
3403.00,-0.0483
3402.00,-0.0482
3401.00,-0.0482
3400.00,-0.0482
3399.00,-0.0482
3398.00,-0.0481
3397.00,-0.0481
3396.00,-0.0481
3395.00,-0.0481
3394.00,-0.0480
3393.00,-0.0480
3392.00,-0.0480
3391.00,-0.0480
3390.00,-0.0480
3389.00,-0.0480
3388.00,-0.0480
3387.00,-0.0480
3386.00,-0.0480
3385.00,-0.0480
3384.00,-0.0480
3383.00,-0.0480
3382.00,-0.0480
3381.00,-0.0480
3380.00,-0.0480
3379.00,-0.0480
3378.00,-0.0480
3377.00,-0.0480
3376.00,-0.0480
3375.00,-0.0480
3374.00,-0.0480
3373.00,-0.0480
3372.00,-0.0480
3371.00,-0.0481
3370.00,-0.0481
3369.00,-0.0480
3368.00,-0.0480
3367.00,-0.0480
3366.00,-0.0480
3365.00,-0.0480
3364.00,-0.0480
3363.00,-0.0480
3362.00,-0.0480
3361.00,-0.0480
3360.00,-0.0480
3359.00,-0.0480
3358.00,-0.0480
3357.00,-0.0480
3356.00,-0.0480
3355.00,-0.0480
3354.00,-0.0480
3353.00,-0.0479
3352.00,-0.0479
3351.00,-0.0479
3350.00,-0.0479
3349.00,-0.0479
3348.00,-0.0479
3347.00,-0.0479
3346.00,-0.0479
3345.00,-0.0479
3344.00,-0.0479
3343.00,-0.0479
3342.00,-0.0479
3341.00,-0.0479
3340.00,-0.0479
3339.00,-0.0479
3338.00,-0.0479
3337.00,-0.0479
3336.00,-0.0479
3335.00,-0.0479
3334.00,-0.0479
3333.00,-0.0480
3332.00,-0.0480
3331.00,-0.0480
3330.00,-0.0480
3329.00,-0.0480
3328.00,-0.0480
3327.00,-0.0480
3326.00,-0.0480
3325.00,-0.0481
3324.00,-0.0481
3323.00,-0.0481
3322.00,-0.0481
3321.00,-0.0481
3320.00,-0.0482
3319.00,-0.0482
3318.00,-0.0482
3317.00,-0.0482
3316.00,-0.0482
3315.00,-0.0482
3314.00,-0.0482
3313.00,-0.0483
3312.00,-0.0483
3311.00,-0.0483
3310.00,-0.0483
3309.00,-0.0483
3308.00,-0.0484
3307.00,-0.0484
3306.00,-0.0484
3305.00,-0.0484
3304.00,-0.0484
3303.00,-0.0484
3302.00,-0.0484
3301.00,-0.0484
3300.00,-0.0484
3299.00,-0.0484
3298.00,-0.0484
3297.00,-0.0484
3296.00,-0.0483
3295.00,-0.0483
3294.00,-0.0483
3293.00,-0.0482
3292.00,-0.0482
3291.00,-0.0482
3290.00,-0.0481
3289.00,-0.0481
3288.00,-0.0481
3287.00,-0.0481
3286.00,-0.0481
3285.00,-0.0480
3284.00,-0.0480
3283.00,-0.0480
3282.00,-0.0480
3281.00,-0.0480
3280.00,-0.0480
3279.00,-0.0479
3278.00,-0.0479
3277.00,-0.0479
3276.00,-0.0479
3275.00,-0.0479
3274.00,-0.0479
3273.00,-0.0479
3272.00,-0.0479
3271.00,-0.0479
3270.00,-0.0479
3269.00,-0.0479
3268.00,-0.0479
3267.00,-0.0479
3266.00,-0.0479
3265.00,-0.0479
3264.00,-0.0479
3263.00,-0.0479
3262.00,-0.0479
3261.00,-0.0479
3260.00,-0.0479
3259.00,-0.0479
3258.00,-0.0479
3257.00,-0.0479
3256.00,-0.0479
3255.00,-0.0479
3254.00,-0.0479
3253.00,-0.0479
3252.00,-0.0479
3251.00,-0.0479
3250.00,-0.0479
3249.00,-0.0479
3248.00,-0.0479
3247.00,-0.0479
3246.00,-0.0479
3245.00,-0.0479
3244.00,-0.0479
3243.00,-0.0479
3242.00,-0.0479
3241.00,-0.0479
3240.00,-0.0479
3239.00,-0.0479
3238.00,-0.0479
3237.00,-0.0479
3236.00,-0.0479
3235.00,-0.0479
3234.00,-0.0479
3233.00,-0.0479
3232.00,-0.0479
3231.00,-0.0479
3230.00,-0.0479
3229.00,-0.0479
3228.00,-0.0479
3227.00,-0.0479
3226.00,-0.0479
3225.00,-0.0479
3224.00,-0.0479
3223.00,-0.0480
3222.00,-0.0480
3221.00,-0.0480
3220.00,-0.0480
3219.00,-0.0480
3218.00,-0.0480
3217.00,-0.0480
3216.00,-0.0481
3215.00,-0.0481
3214.00,-0.0481
3213.00,-0.0481
3212.00,-0.0481
3211.00,-0.0481
3210.00,-0.0481
3209.00,-0.0482
3208.00,-0.0482
3207.00,-0.0482
3206.00,-0.0482
3205.00,-0.0482
3204.00,-0.0482
3203.00,-0.0482
3202.00,-0.0482
3201.00,-0.0482
3200.00,-0.0482
3199.00,-0.0482
3198.00,-0.0482
3197.00,-0.0482
3196.00,-0.0482
3195.00,-0.0482
3194.00,-0.0482
3193.00,-0.0482
3192.00,-0.0482
3191.00,-0.0482
3190.00,-0.0482
3189.00,-0.0482
3188.00,-0.0482
3187.00,-0.0482
3186.00,-0.0482
3185.00,-0.0481
3184.00,-0.0481
3183.00,-0.0481
3182.00,-0.0481
3181.00,-0.0481
3180.00,-0.0481
3179.00,-0.0481
3178.00,-0.0481
3177.00,-0.0481
3176.00,-0.0481
3175.00,-0.0481
3174.00,-0.0481
3173.00,-0.0481
3172.00,-0.0481
3171.00,-0.0481
3170.00,-0.0481
3169.00,-0.0481
3168.00,-0.0481
3167.00,-0.0481
3166.00,-0.0481
3165.00,-0.0481
3164.00,-0.0481
3163.00,-0.0481
3162.00,-0.0481
3161.00,-0.0482
3160.00,-0.0482
3159.00,-0.0482
3158.00,-0.0482
3157.00,-0.0482
3156.00,-0.0482
3155.00,-0.0482
3154.00,-0.0482
3153.00,-0.0482
3152.00,-0.0482
3151.00,-0.0482
3150.00,-0.0482
3149.00,-0.0482
3148.00,-0.0482
3147.00,-0.0482
3146.00,-0.0482
3145.00,-0.0482
3144.00,-0.0482
3143.00,-0.0482
3142.00,-0.0482
3141.00,-0.0482
3140.00,-0.0482
3139.00,-0.0482
3138.00,-0.0482
3137.00,-0.0482
3136.00,-0.0482
3135.00,-0.0481
3134.00,-0.0481
3133.00,-0.0481
3132.00,-0.0481
3131.00,-0.0481
3130.00,-0.0481
3129.00,-0.0481
3128.00,-0.0481
3127.00,-0.0481
3126.00,-0.0481
3125.00,-0.0481
3124.00,-0.0481
3123.00,-0.0481
3122.00,-0.0481
3121.00,-0.0481
3120.00,-0.0481
3119.00,-0.0482
3118.00,-0.0482
3117.00,-0.0482
3116.00,-0.0482
3115.00,-0.0482
3114.00,-0.0483
3113.00,-0.0483
3112.00,-0.0483
3111.00,-0.0483
3110.00,-0.0484
3109.00,-0.0484
3108.00,-0.0484
3107.00,-0.0484
3106.00,-0.0484
3105.00,-0.0484
3104.00,-0.0484
3103.00,-0.0484
3102.00,-0.0484
3101.00,-0.0485
3100.00,-0.0485
3099.00,-0.0485
3098.00,-0.0485
3097.00,-0.0485
3096.00,-0.0485
3095.00,-0.0485
3094.00,-0.0485
3093.00,-0.0485
3092.00,-0.0485
3091.00,-0.0485
3090.00,-0.0485
3089.00,-0.0485
3088.00,-0.0485
3087.00,-0.0485
3086.00,-0.0484
3085.00,-0.0484
3084.00,-0.0484
3083.00,-0.0484
3082.00,-0.0484
3081.00,-0.0484
3080.00,-0.0484
3079.00,-0.0484
3078.00,-0.0484
3077.00,-0.0484
3076.00,-0.0484
3075.00,-0.0484
3074.00,-0.0484
3073.00,-0.0484
3072.00,-0.0484
3071.00,-0.0484
3070.00,-0.0484
3069.00,-0.0484
3068.00,-0.0484
3067.00,-0.0484
3066.00,-0.0484
3065.00,-0.0484
3064.00,-0.0484
3063.00,-0.0484
3062.00,-0.0484
3061.00,-0.0485
3060.00,-0.0485
3059.00,-0.0485
3058.00,-0.0485
3057.00,-0.0485
3056.00,-0.0485
3055.00,-0.0485
3054.00,-0.0485
3053.00,-0.0485
3052.00,-0.0485
3051.00,-0.0485
3050.00,-0.0486
3049.00,-0.0486
3048.00,-0.0486
3047.00,-0.0486
3046.00,-0.0486
3045.00,-0.0486
3044.00,-0.0486
3043.00,-0.0486
3042.00,-0.0486
3041.00,-0.0486
3040.00,-0.0486
3039.00,-0.0486
3038.00,-0.0486
3037.00,-0.0486
3036.00,-0.0485
3035.00,-0.0485
3034.00,-0.0485
3033.00,-0.0485
3032.00,-0.0485
3031.00,-0.0485
3030.00,-0.0485
3029.00,-0.0485
3028.00,-0.0485
3027.00,-0.0485
3026.00,-0.0485
3025.00,-0.0485
3024.00,-0.0485
3023.00,-0.0484
3022.00,-0.0484
3021.00,-0.0484
3020.00,-0.0484
3019.00,-0.0484
3018.00,-0.0484
3017.00,-0.0484
3016.00,-0.0484
3015.00,-0.0484
3014.00,-0.0484
3013.00,-0.0484
3012.00,-0.0484
3011.00,-0.0485
3010.00,-0.0485
3009.00,-0.0485
3008.00,-0.0485
3007.00,-0.0485
3006.00,-0.0485
3005.00,-0.0485
3004.00,-0.0485
3003.00,-0.0485
3002.00,-0.0485
3001.00,-0.0485
3000.00,-0.0485
2999.00,-0.0485
2998.00,-0.0485
2997.00,-0.0485
2996.00,-0.0485
2995.00,-0.0485
2994.00,-0.0485
2993.00,-0.0485
2992.00,-0.0485
2991.00,-0.0485
2990.00,-0.0485
2989.00,-0.0485
2988.00,-0.0485
2987.00,-0.0485
2986.00,-0.0485
2985.00,-0.0485
2984.00,-0.0485
2983.00,-0.0485
2982.00,-0.0484
2981.00,-0.0484
2980.00,-0.0484
2979.00,-0.0484
2978.00,-0.0484
2977.00,-0.0484
2976.00,-0.0484
2975.00,-0.0484
2974.00,-0.0484
2973.00,-0.0484
2972.00,-0.0484
2971.00,-0.0484
2970.00,-0.0484
2969.00,-0.0484
2968.00,-0.0484
2967.00,-0.0484
2966.00,-0.0484
2965.00,-0.0484
2964.00,-0.0484
2963.00,-0.0484
2962.00,-0.0484
2961.00,-0.0484
2960.00,-0.0484
2959.00,-0.0484
2958.00,-0.0484
2957.00,-0.0484
2956.00,-0.0484
2955.00,-0.0484
2954.00,-0.0484
2953.00,-0.0484
2952.00,-0.0484
2951.00,-0.0485
2950.00,-0.0485
2949.00,-0.0485
2948.00,-0.0485
2947.00,-0.0485
2946.00,-0.0485
2945.00,-0.0485
2944.00,-0.0485
2943.00,-0.0485
2942.00,-0.0485
2941.00,-0.0485
2940.00,-0.0485
2939.00,-0.0485
2938.00,-0.0485
2937.00,-0.0485
2936.00,-0.0485
2935.00,-0.0485
2934.00,-0.0485
2933.00,-0.0485
2932.00,-0.0485
2931.00,-0.0485
2930.00,-0.0485
2929.00,-0.0485
2928.00,-0.0485
2927.00,-0.0485
2926.00,-0.0485
2925.00,-0.0485
2924.00,-0.0485
2923.00,-0.0485
2922.00,-0.0485
2921.00,-0.0485
2920.00,-0.0485
2919.00,-0.0484
2918.00,-0.0484
2917.00,-0.0484
2916.00,-0.0484
2915.00,-0.0484
2914.00,-0.0484
2913.00,-0.0484
2912.00,-0.0484
2911.00,-0.0484
2910.00,-0.0483
2909.00,-0.0483
2908.00,-0.0483
2907.00,-0.0483
2906.00,-0.0483
2905.00,-0.0483
2904.00,-0.0484
2903.00,-0.0484
2902.00,-0.0483
2901.00,-0.0483
2900.00,-0.0484
2899.00,-0.0484
2898.00,-0.0484
2897.00,-0.0484
2896.00,-0.0484
2895.00,-0.0484
2894.00,-0.0484
2893.00,-0.0484
2892.00,-0.0484
2891.00,-0.0485
2890.00,-0.0485
2889.00,-0.0485
2888.00,-0.0485
2887.00,-0.0485
2886.00,-0.0485
2885.00,-0.0485
2884.00,-0.0485
2883.00,-0.0485
2882.00,-0.0485
2881.00,-0.0485
2880.00,-0.0485
2879.00,-0.0485
2878.00,-0.0485
2877.00,-0.0484
2876.00,-0.0484
2875.00,-0.0484
2874.00,-0.0484
2873.00,-0.0484
2872.00,-0.0484
2871.00,-0.0484
2870.00,-0.0484
2869.00,-0.0484
2868.00,-0.0484
2867.00,-0.0484
2866.00,-0.0483
2865.00,-0.0483
2864.00,-0.0483
2863.00,-0.0483
2862.00,-0.0483
2861.00,-0.0483
2860.00,-0.0483
2859.00,-0.0483
2858.00,-0.0483
2857.00,-0.0484
2856.00,-0.0484
2855.00,-0.0484
2854.00,-0.0484
2853.00,-0.0484
2852.00,-0.0484
2851.00,-0.0484
2850.00,-0.0484
2849.00,-0.0484
2848.00,-0.0484
2847.00,-0.0485
2846.00,-0.0485
2845.00,-0.0485
2844.00,-0.0485
2843.00,-0.0485
2842.00,-0.0485
2841.00,-0.0485
2840.00,-0.0485
2839.00,-0.0485
2838.00,-0.0485
2837.00,-0.0485
2836.00,-0.0485
2835.00,-0.0485
2834.00,-0.0485
2833.00,-0.0485
2832.00,-0.0485
2831.00,-0.0485
2830.00,-0.0485
2829.00,-0.0485
2828.00,-0.0485
2827.00,-0.0485
2826.00,-0.0485
2825.00,-0.0485
2824.00,-0.0485
2823.00,-0.0485
2822.00,-0.0484
2821.00,-0.0484
2820.00,-0.0484
2819.00,-0.0484
2818.00,-0.0484
2817.00,-0.0484
2816.00,-0.0483
2815.00,-0.0483
2814.00,-0.0483
2813.00,-0.0483
2812.00,-0.0483
2811.00,-0.0483
2810.00,-0.0483
2809.00,-0.0483
2808.00,-0.0482
2807.00,-0.0482
2806.00,-0.0482
2805.00,-0.0482
2804.00,-0.0482
2803.00,-0.0483
2802.00,-0.0483
2801.00,-0.0483
2800.00,-0.0483
2799.00,-0.0483
2798.00,-0.0483
2797.00,-0.0483
2796.00,-0.0483
2795.00,-0.0483
2794.00,-0.0483
2793.00,-0.0483
2792.00,-0.0483
2791.00,-0.0483
2790.00,-0.0483
2789.00,-0.0484
2788.00,-0.0484
2787.00,-0.0484
2786.00,-0.0484
2785.00,-0.0484
2784.00,-0.0484
2783.00,-0.0484
2782.00,-0.0484
2781.00,-0.0484
2780.00,-0.0484
2779.00,-0.0484
2778.00,-0.0484
2777.00,-0.0484
2776.00,-0.0484
2775.00,-0.0484
2774.00,-0.0484
2773.00,-0.0484
2772.00,-0.0484
2771.00,-0.0484
2770.00,-0.0483
2769.00,-0.0483
2768.00,-0.0483
2767.00,-0.0483
2766.00,-0.0483
2765.00,-0.0483
2764.00,-0.0483
2763.00,-0.0483
2762.00,-0.0483
2761.00,-0.0483
2760.00,-0.0483
2759.00,-0.0482
2758.00,-0.0482
2757.00,-0.0482
2756.00,-0.0482
2755.00,-0.0482
2754.00,-0.0482
2753.00,-0.0482
2752.00,-0.0482
2751.00,-0.0482
2750.00,-0.0482
2749.00,-0.0482
2748.00,-0.0482
2747.00,-0.0483
2746.00,-0.0483
2745.00,-0.0483
2744.00,-0.0483
2743.00,-0.0483
2742.00,-0.0483
2741.00,-0.0483
2740.00,-0.0484
2739.00,-0.0484
2738.00,-0.0484
2737.00,-0.0484
2736.00,-0.0484
2735.00,-0.0484
2734.00,-0.0484
2733.00,-0.0484
2732.00,-0.0484
2731.00,-0.0484
2730.00,-0.0484
2729.00,-0.0484
2728.00,-0.0484
2727.00,-0.0484
2726.00,-0.0483
2725.00,-0.0483
2724.00,-0.0483
2723.00,-0.0483
2722.00,-0.0483
2721.00,-0.0483
2720.00,-0.0482
2719.00,-0.0482
2718.00,-0.0482
2717.00,-0.0482
2716.00,-0.0482
2715.00,-0.0482
2714.00,-0.0481
2713.00,-0.0481
2712.00,-0.0481
2711.00,-0.0481
2710.00,-0.0481
2709.00,-0.0481
2708.00,-0.0480
2707.00,-0.0480
2706.00,-0.0480
2705.00,-0.0480
2704.00,-0.0480
2703.00,-0.0480
2702.00,-0.0480
2701.00,-0.0480
2700.00,-0.0480
2699.00,-0.0480
2698.00,-0.0480
2697.00,-0.0480
2696.00,-0.0480
2695.00,-0.0480
2694.00,-0.0480
2693.00,-0.0480
2692.00,-0.0480
2691.00,-0.0481
2690.00,-0.0481
2689.00,-0.0481
2688.00,-0.0481
2687.00,-0.0481
2686.00,-0.0481
2685.00,-0.0481
2684.00,-0.0481
2683.00,-0.0482
2682.00,-0.0482
2681.00,-0.0482
2680.00,-0.0482
2679.00,-0.0482
2678.00,-0.0482
2677.00,-0.0482
2676.00,-0.0482
2675.00,-0.0482
2674.00,-0.0482
2673.00,-0.0482
2672.00,-0.0482
2671.00,-0.0482
2670.00,-0.0482
2669.00,-0.0482
2668.00,-0.0482
2667.00,-0.0482
2666.00,-0.0482
2665.00,-0.0482
2664.00,-0.0482
2663.00,-0.0481
2662.00,-0.0481
2661.00,-0.0481
2660.00,-0.0481
2659.00,-0.0481
2658.00,-0.0480
2657.00,-0.0480
2656.00,-0.0480
2655.00,-0.0480
2654.00,-0.0480
2653.00,-0.0480
2652.00,-0.0480
2651.00,-0.0480
2650.00,-0.0479
2649.00,-0.0479
2648.00,-0.0479
2647.00,-0.0479
2646.00,-0.0479
2645.00,-0.0479
2644.00,-0.0479
2643.00,-0.0479
2642.00,-0.0479
2641.00,-0.0479
2640.00,-0.0479
2639.00,-0.0479
2638.00,-0.0479
2637.00,-0.0479
2636.00,-0.0479
2635.00,-0.0479
2634.00,-0.0479
2633.00,-0.0479
2632.00,-0.0479
2631.00,-0.0479
2630.00,-0.0479
2629.00,-0.0479
2628.00,-0.0480
2627.00,-0.0480
2626.00,-0.0480
2625.00,-0.0480
2624.00,-0.0480
2623.00,-0.0480
2622.00,-0.0480
2621.00,-0.0480
2620.00,-0.0480
2619.00,-0.0480
2618.00,-0.0480
2617.00,-0.0480
2616.00,-0.0480
2615.00,-0.0480
2614.00,-0.0480
2613.00,-0.0480
2612.00,-0.0480
2611.00,-0.0480
2610.00,-0.0480
2609.00,-0.0480
2608.00,-0.0480
2607.00,-0.0480
2606.00,-0.0480
2605.00,-0.0479
2604.00,-0.0479
2603.00,-0.0479
2602.00,-0.0479
2601.00,-0.0479
2600.00,-0.0479
2599.00,-0.0479
2598.00,-0.0479
2597.00,-0.0479
2596.00,-0.0479
2595.00,-0.0479
2594.00,-0.0479
2593.00,-0.0479
2592.00,-0.0479
2591.00,-0.0479
2590.00,-0.0479
2589.00,-0.0479
2588.00,-0.0479
2587.00,-0.0479
2586.00,-0.0479
2585.00,-0.0479
2584.00,-0.0479
2583.00,-0.0480
2582.00,-0.0480
2581.00,-0.0480
2580.00,-0.0480
2579.00,-0.0480
2578.00,-0.0480
2577.00,-0.0480
2576.00,-0.0480
2575.00,-0.0480
2574.00,-0.0480
2573.00,-0.0480
2572.00,-0.0480
2571.00,-0.0481
2570.00,-0.0481
2569.00,-0.0481
2568.00,-0.0481
2567.00,-0.0480
2566.00,-0.0480
2565.00,-0.0480
2564.00,-0.0480
2563.00,-0.0480
2562.00,-0.0480
2561.00,-0.0480
2560.00,-0.0480
2559.00,-0.0480
2558.00,-0.0480
2557.00,-0.0479
2556.00,-0.0479
2555.00,-0.0479
2554.00,-0.0479
2553.00,-0.0479
2552.00,-0.0478
2551.00,-0.0478
2550.00,-0.0478
2549.00,-0.0478
2548.00,-0.0478
2547.00,-0.0477
2546.00,-0.0477
2545.00,-0.0477
2544.00,-0.0477
2543.00,-0.0477
2542.00,-0.0477
2541.00,-0.0477
2540.00,-0.0477
2539.00,-0.0476
2538.00,-0.0476
2537.00,-0.0476
2536.00,-0.0476
2535.00,-0.0477
2534.00,-0.0477
2533.00,-0.0477
2532.00,-0.0477
2531.00,-0.0477
2530.00,-0.0477
2529.00,-0.0477
2528.00,-0.0477
2527.00,-0.0477
2526.00,-0.0477
2525.00,-0.0477
2524.00,-0.0477
2523.00,-0.0478
2522.00,-0.0478
2521.00,-0.0478
2520.00,-0.0478
2519.00,-0.0478
2518.00,-0.0478
2517.00,-0.0478
2516.00,-0.0478
2515.00,-0.0477
2514.00,-0.0477
2513.00,-0.0477
2512.00,-0.0477
2511.00,-0.0477
2510.00,-0.0477
2509.00,-0.0477
2508.00,-0.0477
2507.00,-0.0476
2506.00,-0.0476
2505.00,-0.0476
2504.00,-0.0476
2503.00,-0.0476
2502.00,-0.0476
2501.00,-0.0475
2500.00,-0.0475
2499.00,-0.0475
2498.00,-0.0475
2497.00,-0.0475
2496.00,-0.0474
2495.00,-0.0474
2494.00,-0.0474
2493.00,-0.0474
2492.00,-0.0474
2491.00,-0.0474
2490.00,-0.0474
2489.00,-0.0474
2488.00,-0.0474
2487.00,-0.0474
2486.00,-0.0474
2485.00,-0.0474
2484.00,-0.0474
2483.00,-0.0474
2482.00,-0.0474
2481.00,-0.0474
2480.00,-0.0474
2479.00,-0.0474
2478.00,-0.0474
2477.00,-0.0474
2476.00,-0.0474
2475.00,-0.0474
2474.00,-0.0474
2473.00,-0.0475
2472.00,-0.0475
2471.00,-0.0475
2470.00,-0.0475
2469.00,-0.0475
2468.00,-0.0475
2467.00,-0.0475
2466.00,-0.0475
2465.00,-0.0475
2464.00,-0.0475
2463.00,-0.0475
2462.00,-0.0475
2461.00,-0.0475
2460.00,-0.0475
2459.00,-0.0475
2458.00,-0.0474
2457.00,-0.0474
2456.00,-0.0474
2455.00,-0.0474
2454.00,-0.0474
2453.00,-0.0474
2452.00,-0.0474
2451.00,-0.0474
2450.00,-0.0474
2449.00,-0.0473
2448.00,-0.0473
2447.00,-0.0473
2446.00,-0.0473
2445.00,-0.0473
2444.00,-0.0473
2443.00,-0.0473
2442.00,-0.0473
2441.00,-0.0473
2440.00,-0.0473
2439.00,-0.0473
2438.00,-0.0473
2437.00,-0.0473
2436.00,-0.0473
2435.00,-0.0473
2434.00,-0.0473
2433.00,-0.0474
2432.00,-0.0474
2431.00,-0.0474
2430.00,-0.0474
2429.00,-0.0474
2428.00,-0.0474
2427.00,-0.0475
2426.00,-0.0475
2425.00,-0.0475
2424.00,-0.0475
2423.00,-0.0475
2422.00,-0.0476
2421.00,-0.0476
2420.00,-0.0476
2419.00,-0.0476
2418.00,-0.0477
2417.00,-0.0477
2416.00,-0.0477
2415.00,-0.0477
2414.00,-0.0477
2413.00,-0.0477
2412.00,-0.0477
2411.00,-0.0477
2410.00,-0.0477
2409.00,-0.0477
2408.00,-0.0477
2407.00,-0.0477
2406.00,-0.0477
2405.00,-0.0477
2404.00,-0.0477
2403.00,-0.0477
2402.00,-0.0477
2401.00,-0.0477
2400.00,-0.0476
2399.00,-0.0476
2398.00,-0.0476
2397.00,-0.0476
2396.00,-0.0476
2395.00,-0.0476
2394.00,-0.0475
2393.00,-0.0475
2392.00,-0.0475
2391.00,-0.0475
2390.00,-0.0475
2389.00,-0.0475
2388.00,-0.0475
2387.00,-0.0475
2386.00,-0.0475
2385.00,-0.0475
2384.00,-0.0475
2383.00,-0.0475
2382.00,-0.0475
2381.00,-0.0476
2380.00,-0.0476
2379.00,-0.0476
2378.00,-0.0476
2377.00,-0.0476
2376.00,-0.0476
2375.00,-0.0476
2374.00,-0.0476
2373.00,-0.0476
2372.00,-0.0475
2371.00,-0.0475
2370.00,-0.0475
2369.00,-0.0475
2368.00,-0.0474
2367.00,-0.0474
2366.00,-0.0474
2365.00,-0.0475
2364.00,-0.0475
2363.00,-0.0475
2362.00,-0.0475
2361.00,-0.0475
2360.00,-0.0475
2359.00,-0.0475
2358.00,-0.0475
2357.00,-0.0475
2356.00,-0.0475
2355.00,-0.0474
2354.00,-0.0474
2353.00,-0.0475
2352.00,-0.0475
2351.00,-0.0476
2350.00,-0.0475
2349.00,-0.0475
2348.00,-0.0474
2347.00,-0.0474
2346.00,-0.0475
2345.00,-0.0476
2344.00,-0.0476
2343.00,-0.0476
2342.00,-0.0475
2341.00,-0.0475
2340.00,-0.0474
2339.00,-0.0474
2338.00,-0.0474
2337.00,-0.0474
2336.00,-0.0474
2335.00,-0.0474
2334.00,-0.0474
2333.00,-0.0474
2332.00,-0.0474
2331.00,-0.0474
2330.00,-0.0474
2329.00,-0.0474
2328.00,-0.0474
2327.00,-0.0473
2326.00,-0.0473
2325.00,-0.0474
2324.00,-0.0474
2323.00,-0.0474
2322.00,-0.0473
2321.00,-0.0473
2320.00,-0.0473
2319.00,-0.0473
2318.00,-0.0473
2317.00,-0.0472
2316.00,-0.0472
2315.00,-0.0472
2314.00,-0.0472
2313.00,-0.0473
2312.00,-0.0473
2311.00,-0.0473
2310.00,-0.0473
2309.00,-0.0473
2308.00,-0.0473
2307.00,-0.0473
2306.00,-0.0473
2305.00,-0.0473
2304.00,-0.0473
2303.00,-0.0473
2302.00,-0.0473
2301.00,-0.0473
2300.00,-0.0473
2299.00,-0.0473
2298.00,-0.0473
2297.00,-0.0473
2296.00,-0.0473
2295.00,-0.0473
2294.00,-0.0473
2293.00,-0.0473
2292.00,-0.0473
2291.00,-0.0473
2290.00,-0.0473
2289.00,-0.0472
2288.00,-0.0472
2287.00,-0.0472
2286.00,-0.0472
2285.00,-0.0472
2284.00,-0.0472
2283.00,-0.0472
2282.00,-0.0472
2281.00,-0.0472
2280.00,-0.0472
2279.00,-0.0472
2278.00,-0.0471
2277.00,-0.0471
2276.00,-0.0471
2275.00,-0.0471
2274.00,-0.0471
2273.00,-0.0471
2272.00,-0.0471
2271.00,-0.0471
2270.00,-0.0471
2269.00,-0.0472
2268.00,-0.0472
2267.00,-0.0472
2266.00,-0.0472
2265.00,-0.0472
2264.00,-0.0472
2263.00,-0.0472
2262.00,-0.0472
2261.00,-0.0472
2260.00,-0.0472
2259.00,-0.0472
2258.00,-0.0473
2257.00,-0.0473
2256.00,-0.0473
2255.00,-0.0473
2254.00,-0.0473
2253.00,-0.0473
2252.00,-0.0473
2251.00,-0.0473
2250.00,-0.0473
2249.00,-0.0473
2248.00,-0.0473
2247.00,-0.0473
2246.00,-0.0473
2245.00,-0.0473
2244.00,-0.0473
2243.00,-0.0473
2242.00,-0.0472
2241.00,-0.0472
2240.00,-0.0472
2239.00,-0.0472
2238.00,-0.0472
2237.00,-0.0472
2236.00,-0.0471
2235.00,-0.0471
2234.00,-0.0471
2233.00,-0.0471
2232.00,-0.0471
2231.00,-0.0470
2230.00,-0.0470
2229.00,-0.0470
2228.00,-0.0470
2227.00,-0.0470
2226.00,-0.0470
2225.00,-0.0469
2224.00,-0.0469
2223.00,-0.0469
2222.00,-0.0469
2221.00,-0.0469
2220.00,-0.0469
2219.00,-0.0469
2218.00,-0.0469
2217.00,-0.0469
2216.00,-0.0469
2215.00,-0.0469
2214.00,-0.0470
2213.00,-0.0470
2212.00,-0.0470
2211.00,-0.0470
2210.00,-0.0470
2209.00,-0.0470
2208.00,-0.0470
2207.00,-0.0470
2206.00,-0.0470
2205.00,-0.0470
2204.00,-0.0470
2203.00,-0.0470
2202.00,-0.0470
2201.00,-0.0470
2200.00,-0.0470
2199.00,-0.0470
2198.00,-0.0470
2197.00,-0.0470
2196.00,-0.0470
2195.00,-0.0470
2194.00,-0.0470
2193.00,-0.0470
2192.00,-0.0470
2191.00,-0.0469
2190.00,-0.0469
2189.00,-0.0469
2188.00,-0.0468
2187.00,-0.0468
2186.00,-0.0468
2185.00,-0.0468
2184.00,-0.0468
2183.00,-0.0467
2182.00,-0.0467
2181.00,-0.0467
2180.00,-0.0467
2179.00,-0.0467
2178.00,-0.0467
2177.00,-0.0467
2176.00,-0.0467
2175.00,-0.0467
2174.00,-0.0467
2173.00,-0.0467
2172.00,-0.0467
2171.00,-0.0467
2170.00,-0.0467
2169.00,-0.0467
2168.00,-0.0467
2167.00,-0.0467
2166.00,-0.0467
2165.00,-0.0467
2164.00,-0.0467
2163.00,-0.0468
2162.00,-0.0468
2161.00,-0.0468
2160.00,-0.0468
2159.00,-0.0468
2158.00,-0.0468
2157.00,-0.0469
2156.00,-0.0469
2155.00,-0.0469
2154.00,-0.0469
2153.00,-0.0469
2152.00,-0.0469
2151.00,-0.0469
2150.00,-0.0469
2149.00,-0.0469
2148.00,-0.0469
2147.00,-0.0469
2146.00,-0.0469
2145.00,-0.0469
2144.00,-0.0469
2143.00,-0.0469
2142.00,-0.0469
2141.00,-0.0469
2140.00,-0.0469
2139.00,-0.0469
2138.00,-0.0469
2137.00,-0.0469
2136.00,-0.0468
2135.00,-0.0468
2134.00,-0.0468
2133.00,-0.0468
2132.00,-0.0468
2131.00,-0.0467
2130.00,-0.0467
2129.00,-0.0467
2128.00,-0.0467
2127.00,-0.0467
2126.00,-0.0467
2125.00,-0.0467
2124.00,-0.0467
2123.00,-0.0467
2122.00,-0.0467
2121.00,-0.0467
2120.00,-0.0467
2119.00,-0.0467
2118.00,-0.0467
2117.00,-0.0467
2116.00,-0.0467
2115.00,-0.0467
2114.00,-0.0467
2113.00,-0.0467
2112.00,-0.0467
2111.00,-0.0467
2110.00,-0.0467
2109.00,-0.0467
2108.00,-0.0467
2107.00,-0.0467
2106.00,-0.0467
2105.00,-0.0467
2104.00,-0.0467
2103.00,-0.0467
2102.00,-0.0467
2101.00,-0.0468
2100.00,-0.0468
2099.00,-0.0468
2098.00,-0.0468
2097.00,-0.0468
2096.00,-0.0468
2095.00,-0.0468
2094.00,-0.0468
2093.00,-0.0468
2092.00,-0.0468
2091.00,-0.0468
2090.00,-0.0468
2089.00,-0.0468
2088.00,-0.0468
2087.00,-0.0468
2086.00,-0.0468
2085.00,-0.0468
2084.00,-0.0468
2083.00,-0.0468
2082.00,-0.0468
2081.00,-0.0468
2080.00,-0.0468
2079.00,-0.0468
2078.00,-0.0468
2077.00,-0.0467
2076.00,-0.0467
2075.00,-0.0467
2074.00,-0.0467
2073.00,-0.0467
2072.00,-0.0467
2071.00,-0.0467
2070.00,-0.0467
2069.00,-0.0467
2068.00,-0.0467
2067.00,-0.0466
2066.00,-0.0466
2065.00,-0.0466
2064.00,-0.0466
2063.00,-0.0466
2062.00,-0.0466
2061.00,-0.0466
2060.00,-0.0466
2059.00,-0.0466
2058.00,-0.0466
2057.00,-0.0466
2056.00,-0.0466
2055.00,-0.0466
2054.00,-0.0466
2053.00,-0.0467
2052.00,-0.0467
2051.00,-0.0467
2050.00,-0.0467
2049.00,-0.0467
2048.00,-0.0467
2047.00,-0.0467
2046.00,-0.0468
2045.00,-0.0468
2044.00,-0.0468
2043.00,-0.0468
2042.00,-0.0468
2041.00,-0.0468
2040.00,-0.0468
2039.00,-0.0469
2038.00,-0.0469
2037.00,-0.0469
2036.00,-0.0469
2035.00,-0.0469
2034.00,-0.0469
2033.00,-0.0469
2032.00,-0.0469
2031.00,-0.0469
2030.00,-0.0469
2029.00,-0.0468
2028.00,-0.0468
2027.00,-0.0468
2026.00,-0.0468
2025.00,-0.0468
2024.00,-0.0468
2023.00,-0.0467
2022.00,-0.0467
2021.00,-0.0467
2020.00,-0.0467
2019.00,-0.0467
2018.00,-0.0466
2017.00,-0.0466
2016.00,-0.0466
2015.00,-0.0466
2014.00,-0.0466
2013.00,-0.0466
2012.00,-0.0466
2011.00,-0.0466
2010.00,-0.0466
2009.00,-0.0466
2008.00,-0.0466
2007.00,-0.0466
2006.00,-0.0466
2005.00,-0.0466
2004.00,-0.0466
2003.00,-0.0466
2002.00,-0.0467
2001.00,-0.0467
2000.00,-0.0467
1999.00,-0.0467
1998.00,-0.0468
1997.00,-0.0468
1996.00,-0.0468
1995.00,-0.0468
1994.00,-0.0469
1993.00,-0.0469
1992.00,-0.0470
1991.00,-0.0470
1990.00,-0.0470
1989.00,-0.0470
1988.00,-0.0470
1987.00,-0.0471
1986.00,-0.0471
1985.00,-0.0471
1984.00,-0.0471
1983.00,-0.0472
1982.00,-0.0472
1981.00,-0.0472
1980.00,-0.0472
1979.00,-0.0472
1978.00,-0.0472
1977.00,-0.0472
1976.00,-0.0472
1975.00,-0.0472
1974.00,-0.0472
1973.00,-0.0472
1972.00,-0.0471
1971.00,-0.0471
1970.00,-0.0471
1969.00,-0.0470
1968.00,-0.0470
1967.00,-0.0470
1966.00,-0.0470
1965.00,-0.0470
1964.00,-0.0469
1963.00,-0.0469
1962.00,-0.0470
1961.00,-0.0470
1960.00,-0.0470
1959.00,-0.0470
1958.00,-0.0470
1957.00,-0.0470
1956.00,-0.0471
1955.00,-0.0471
1954.00,-0.0472
1953.00,-0.0472
1952.00,-0.0472
1951.00,-0.0473
1950.00,-0.0473
1949.00,-0.0473
1948.00,-0.0473
1947.00,-0.0473
1946.00,-0.0474
1945.00,-0.0474
1944.00,-0.0474
1943.00,-0.0474
1942.00,-0.0474
1941.00,-0.0474
1940.00,-0.0474
1939.00,-0.0473
1938.00,-0.0473
1937.00,-0.0473
1936.00,-0.0473
1935.00,-0.0473
1934.00,-0.0472
1933.00,-0.0472
1932.00,-0.0472
1931.00,-0.0472
1930.00,-0.0471
1929.00,-0.0471
1928.00,-0.0471
1927.00,-0.0471
1926.00,-0.0470
1925.00,-0.0470
1924.00,-0.0470
1923.00,-0.0470
1922.00,-0.0470
1921.00,-0.0470
1920.00,-0.0469
1919.00,-0.0469
1918.00,-0.0469
1917.00,-0.0469
1916.00,-0.0469
1915.00,-0.0469
1914.00,-0.0468
1913.00,-0.0468
1912.00,-0.0468
1911.00,-0.0469
1910.00,-0.0469
1909.00,-0.0469
1908.00,-0.0469
1907.00,-0.0468
1906.00,-0.0468
1905.00,-0.0468
1904.00,-0.0468
1903.00,-0.0468
1902.00,-0.0468
1901.00,-0.0468
1900.00,-0.0468
1899.00,-0.0468
1898.00,-0.0468
1897.00,-0.0468
1896.00,-0.0469
1895.00,-0.0469
1894.00,-0.0469
1893.00,-0.0469
1892.00,-0.0469
1891.00,-0.0469
1890.00,-0.0470
1889.00,-0.0470
1888.00,-0.0470
1887.00,-0.0470
1886.00,-0.0470
1885.00,-0.0470
1884.00,-0.0471
1883.00,-0.0471
1882.00,-0.0471
1881.00,-0.0471
1880.00,-0.0472
1879.00,-0.0472
1878.00,-0.0472
1877.00,-0.0472
1876.00,-0.0472
1875.00,-0.0472
1874.00,-0.0472
1873.00,-0.0472
1872.00,-0.0472
1871.00,-0.0472
1870.00,-0.0471
1869.00,-0.0472
1868.00,-0.0472
1867.00,-0.0472
1866.00,-0.0471
1865.00,-0.0471
1864.00,-0.0471
1863.00,-0.0471
1862.00,-0.0471
1861.00,-0.0471
1860.00,-0.0471
1859.00,-0.0471
1858.00,-0.0471
1857.00,-0.0471
1856.00,-0.0471
1855.00,-0.0472
1854.00,-0.0472
1853.00,-0.0472
1852.00,-0.0472
1851.00,-0.0472
1850.00,-0.0472
1849.00,-0.0473
1848.00,-0.0473
1847.00,-0.0473
1846.00,-0.0473
1845.00,-0.0473
1844.00,-0.0473
1843.00,-0.0474
1842.00,-0.0473
1841.00,-0.0473
1840.00,-0.0473
1839.00,-0.0474
1838.00,-0.0474
1837.00,-0.0475
1836.00,-0.0475
1835.00,-0.0475
1834.00,-0.0475
1833.00,-0.0475
1832.00,-0.0475
1831.00,-0.0475
1830.00,-0.0476
1829.00,-0.0476
1828.00,-0.0476
1827.00,-0.0475
1826.00,-0.0475
1825.00,-0.0475
1824.00,-0.0476
1823.00,-0.0476
1822.00,-0.0476
1821.00,-0.0476
1820.00,-0.0476
1819.00,-0.0476
1818.00,-0.0476
1817.00,-0.0476
1816.00,-0.0476
1815.00,-0.0476
1814.00,-0.0476
1813.00,-0.0476
1812.00,-0.0476
1811.00,-0.0476
1810.00,-0.0476
1809.00,-0.0476
1808.00,-0.0476
1807.00,-0.0476
1806.00,-0.0476
1805.00,-0.0476
1804.00,-0.0476
1803.00,-0.0476
1802.00,-0.0476
1801.00,-0.0476
1800.00,-0.0476
1799.00,-0.0476
1798.00,-0.0476
1797.00,-0.0476
1796.00,-0.0476
1795.00,-0.0476
1794.00,-0.0476
1793.00,-0.0476
1792.00,-0.0476
1791.00,-0.0477
1790.00,-0.0477
1789.00,-0.0477
1788.00,-0.0477
1787.00,-0.0477
1786.00,-0.0477
1785.00,-0.0478
1784.00,-0.0478
1783.00,-0.0479
1782.00,-0.0479
1781.00,-0.0479
1780.00,-0.0479
1779.00,-0.0479
1778.00,-0.0479
1777.00,-0.0479
1776.00,-0.0479
1775.00,-0.0480
1774.00,-0.0479
1773.00,-0.0479
1772.00,-0.0479
1771.00,-0.0479
1770.00,-0.0478
1769.00,-0.0478
1768.00,-0.0478
1767.00,-0.0478
1766.00,-0.0479
1765.00,-0.0479
1764.00,-0.0479
1763.00,-0.0479
1762.00,-0.0479
1761.00,-0.0479
1760.00,-0.0479
1759.00,-0.0478
1758.00,-0.0477
1757.00,-0.0477
1756.00,-0.0477
1755.00,-0.0477
1754.00,-0.0476
1753.00,-0.0474
1752.00,-0.0473
1751.00,-0.0473
1750.00,-0.0473
1749.00,-0.0474
1748.00,-0.0475
1747.00,-0.0475
1746.00,-0.0475
1745.00,-0.0476
1744.00,-0.0476
1743.00,-0.0477
1742.00,-0.0477
1741.00,-0.0477
1740.00,-0.0477
1739.00,-0.0477
1738.00,-0.0478
1737.00,-0.0477
1736.00,-0.0476
1735.00,-0.0475
1734.00,-0.0475
1733.00,-0.0475
1732.00,-0.0475
1731.00,-0.0475
1730.00,-0.0477
1729.00,-0.0478
1728.00,-0.0478
1727.00,-0.0479
1726.00,-0.0479
1725.00,-0.0479
1724.00,-0.0479
1723.00,-0.0479
1722.00,-0.0479
1721.00,-0.0479
1720.00,-0.0479
1719.00,-0.0478
1718.00,-0.0477
1717.00,-0.0477
1716.00,-0.0477
1715.00,-0.0477
1714.00,-0.0477
1713.00,-0.0477
1712.00,-0.0478
1711.00,-0.0478
1710.00,-0.0478
1709.00,-0.0478
1708.00,-0.0478
1707.00,-0.0478
1706.00,-0.0478
1705.00,-0.0479
1704.00,-0.0479
1703.00,-0.0479
1702.00,-0.0478
1701.00,-0.0476
1700.00,-0.0476
1699.00,-0.0476
1698.00,-0.0475
1697.00,-0.0474
1696.00,-0.0474
1695.00,-0.0475
1694.00,-0.0475
1693.00,-0.0475
1692.00,-0.0475
1691.00,-0.0475
1690.00,-0.0476
1689.00,-0.0477
1688.00,-0.0477
1687.00,-0.0477
1686.00,-0.0476
1685.00,-0.0475
1684.00,-0.0475
1683.00,-0.0476
1682.00,-0.0476
1681.00,-0.0476
1680.00,-0.0476
1679.00,-0.0477
1678.00,-0.0478
1677.00,-0.0478
1676.00,-0.0477
1675.00,-0.0477
1674.00,-0.0477
1673.00,-0.0477
1672.00,-0.0476
1671.00,-0.0476
1670.00,-0.0477
1669.00,-0.0478
1668.00,-0.0478
1667.00,-0.0478
1666.00,-0.0478
1665.00,-0.0478
1664.00,-0.0478
1663.00,-0.0478
1662.00,-0.0478
1661.00,-0.0478
1660.00,-0.0478
1659.00,-0.0477
1658.00,-0.0477
1657.00,-0.0478
1656.00,-0.0479
1655.00,-0.0479
1654.00,-0.0479
1653.00,-0.0478
1652.00,-0.0477
1651.00,-0.0475
1650.00,-0.0474
1649.00,-0.0474
1648.00,-0.0474
1647.00,-0.0475
1646.00,-0.0475
1645.00,-0.0475
1644.00,-0.0475
1643.00,-0.0475
1642.00,-0.0475
1641.00,-0.0475
1640.00,-0.0476
1639.00,-0.0476
1638.00,-0.0476
1637.00,-0.0476
1636.00,-0.0476
1635.00,-0.0476
1634.00,-0.0476
1633.00,-0.0476
1632.00,-0.0476
1631.00,-0.0476
1630.00,-0.0476
1629.00,-0.0477
1628.00,-0.0477
1627.00,-0.0478
1626.00,-0.0478
1625.00,-0.0478
1624.00,-0.0478
1623.00,-0.0478
1622.00,-0.0478
1621.00,-0.0478
1620.00,-0.0479
1619.00,-0.0479
1618.00,-0.0479
1617.00,-0.0479
1616.00,-0.0479
1615.00,-0.0479
1614.00,-0.0478
1613.00,-0.0478
1612.00,-0.0478
1611.00,-0.0478
1610.00,-0.0479
1609.00,-0.0479
1608.00,-0.0479
1607.00,-0.0479
1606.00,-0.0479
1605.00,-0.0479
1604.00,-0.0479
1603.00,-0.0479
1602.00,-0.0479
1601.00,-0.0479
1600.00,-0.0479
1599.00,-0.0479
1598.00,-0.0479
1597.00,-0.0479
1596.00,-0.0479
1595.00,-0.0478
1594.00,-0.0478
1593.00,-0.0478
1592.00,-0.0478
1591.00,-0.0478
1590.00,-0.0478
1589.00,-0.0478
1588.00,-0.0478
1587.00,-0.0478
1586.00,-0.0478
1585.00,-0.0478
1584.00,-0.0478
1583.00,-0.0478
1582.00,-0.0478
1581.00,-0.0478
1580.00,-0.0479
1579.00,-0.0479
1578.00,-0.0479
1577.00,-0.0479
1576.00,-0.0479
1575.00,-0.0478
1574.00,-0.0478
1573.00,-0.0479
1572.00,-0.0479
1571.00,-0.0479
1570.00,-0.0479
1569.00,-0.0479
1568.00,-0.0479
1567.00,-0.0478
1566.00,-0.0478
1565.00,-0.0478
1564.00,-0.0479
1563.00,-0.0480
1562.00,-0.0481
1561.00,-0.0480
1560.00,-0.0478
1559.00,-0.0477
1558.00,-0.0477
1557.00,-0.0476
1556.00,-0.0476
1555.00,-0.0476
1554.00,-0.0476
1553.00,-0.0476
1552.00,-0.0476
1551.00,-0.0476
1550.00,-0.0477
1549.00,-0.0477
1548.00,-0.0477
1547.00,-0.0476
1546.00,-0.0476
1545.00,-0.0476
1544.00,-0.0477
1543.00,-0.0477
1542.00,-0.0477
1541.00,-0.0476
1540.00,-0.0476
1539.00,-0.0476
1538.00,-0.0475
1537.00,-0.0475
1536.00,-0.0475
1535.00,-0.0475
1534.00,-0.0475
1533.00,-0.0476
1532.00,-0.0476
1531.00,-0.0476
1530.00,-0.0475
1529.00,-0.0475
1528.00,-0.0476
1527.00,-0.0476
1526.00,-0.0476
1525.00,-0.0476
1524.00,-0.0476
1523.00,-0.0476
1522.00,-0.0475
1521.00,-0.0476
1520.00,-0.0476
1519.00,-0.0475
1518.00,-0.0475
1517.00,-0.0475
1516.00,-0.0476
1515.00,-0.0476
1514.00,-0.0476
1513.00,-0.0476
1512.00,-0.0476
1511.00,-0.0476
1510.00,-0.0477
1509.00,-0.0476
1508.00,-0.0476
1507.00,-0.0476
1506.00,-0.0476
1505.00,-0.0476
1504.00,-0.0476
1503.00,-0.0476
1502.00,-0.0477
1501.00,-0.0477
1500.00,-0.0477
1499.00,-0.0477
1498.00,-0.0477
1497.00,-0.0476
1496.00,-0.0475
1495.00,-0.0475
1494.00,-0.0475
1493.00,-0.0475
1492.00,-0.0474
1491.00,-0.0474
1490.00,-0.0475
1489.00,-0.0476
1488.00,-0.0476
1487.00,-0.0476
1486.00,-0.0477
1485.00,-0.0477
1484.00,-0.0477
1483.00,-0.0478
1482.00,-0.0478
1481.00,-0.0478
1480.00,-0.0478
1479.00,-0.0478
1478.00,-0.0477
1477.00,-0.0477
1476.00,-0.0477
1475.00,-0.0477
1474.00,-0.0476
1473.00,-0.0476
1472.00,-0.0476
1471.00,-0.0477
1470.00,-0.0477
1469.00,-0.0478
1468.00,-0.0479
1467.00,-0.0479
1466.00,-0.0479
1465.00,-0.0479
1464.00,-0.0479
1463.00,-0.0479
1462.00,-0.0479
1461.00,-0.0479
1460.00,-0.0479
1459.00,-0.0480
1458.00,-0.0480
1457.00,-0.0479
1456.00,-0.0478
1455.00,-0.0477
1454.00,-0.0477
1453.00,-0.0478
1452.00,-0.0478
1451.00,-0.0479
1450.00,-0.0479
1449.00,-0.0479
1448.00,-0.0479
1447.00,-0.0480
1446.00,-0.0480
1445.00,-0.0480
1444.00,-0.0479
1443.00,-0.0479
1442.00,-0.0479
1441.00,-0.0479
1440.00,-0.0479
1439.00,-0.0479
1438.00,-0.0479
1437.00,-0.0478
1436.00,-0.0477
1435.00,-0.0477
1434.00,-0.0477
1433.00,-0.0477
1432.00,-0.0477
1431.00,-0.0478
1430.00,-0.0478
1429.00,-0.0478
1428.00,-0.0478
1427.00,-0.0478
1426.00,-0.0477
1425.00,-0.0477
1424.00,-0.0477
1423.00,-0.0478
1422.00,-0.0478
1421.00,-0.0478
1420.00,-0.0478
1419.00,-0.0478
1418.00,-0.0478
1417.00,-0.0478
1416.00,-0.0478
1415.00,-0.0478
1414.00,-0.0479
1413.00,-0.0479
1412.00,-0.0480
1411.00,-0.0480
1410.00,-0.0480
1409.00,-0.0480
1408.00,-0.0480
1407.00,-0.0480
1406.00,-0.0480
1405.00,-0.0479
1404.00,-0.0479
1403.00,-0.0479
1402.00,-0.0479
1401.00,-0.0479
1400.00,-0.0478
1399.00,-0.0478
1398.00,-0.0478
1397.00,-0.0478
1396.00,-0.0479
1395.00,-0.0479
1394.00,-0.0479
1393.00,-0.0480
1392.00,-0.0479
1391.00,-0.0479
1390.00,-0.0480
1389.00,-0.0480
1388.00,-0.0480
1387.00,-0.0480
1386.00,-0.0480
1385.00,-0.0480
1384.00,-0.0479
1383.00,-0.0479
1382.00,-0.0479
1381.00,-0.0479
1380.00,-0.0479
1379.00,-0.0479
1378.00,-0.0479
1377.00,-0.0479
1376.00,-0.0478
1375.00,-0.0478
1374.00,-0.0479
1373.00,-0.0479
1372.00,-0.0479
1371.00,-0.0479
1370.00,-0.0479
1369.00,-0.0479
1368.00,-0.0479
1367.00,-0.0479
1366.00,-0.0479
1365.00,-0.0479
1364.00,-0.0479
1363.00,-0.0479
1362.00,-0.0480
1361.00,-0.0480
1360.00,-0.0480
1359.00,-0.0479
1358.00,-0.0479
1357.00,-0.0480
1356.00,-0.0480
1355.00,-0.0480
1354.00,-0.0480
1353.00,-0.0480
1352.00,-0.0480
1351.00,-0.0480
1350.00,-0.0481
1349.00,-0.0481
1348.00,-0.0481
1347.00,-0.0480
1346.00,-0.0480
1345.00,-0.0480
1344.00,-0.0480
1343.00,-0.0480
1342.00,-0.0480
1341.00,-0.0480
1340.00,-0.0480
1339.00,-0.0480
1338.00,-0.0480
1337.00,-0.0480
1336.00,-0.0480
1335.00,-0.0480
1334.00,-0.0480
1333.00,-0.0480
1332.00,-0.0480
1331.00,-0.0480
1330.00,-0.0480
1329.00,-0.0480
1328.00,-0.0479
1327.00,-0.0479
1326.00,-0.0479
1325.00,-0.0479
1324.00,-0.0479
1323.00,-0.0479
1322.00,-0.0479
1321.00,-0.0479
1320.00,-0.0479
1319.00,-0.0479
1318.00,-0.0479
1317.00,-0.0479
1316.00,-0.0479
1315.00,-0.0479
1314.00,-0.0479
1313.00,-0.0479
1312.00,-0.0479
1311.00,-0.0479
1310.00,-0.0480
1309.00,-0.0480
1308.00,-0.0480
1307.00,-0.0480
1306.00,-0.0480
1305.00,-0.0480
1304.00,-0.0480
1303.00,-0.0480
1302.00,-0.0480
1301.00,-0.0480
1300.00,-0.0480
1299.00,-0.0480
1298.00,-0.0480
1297.00,-0.0480
1296.00,-0.0480
1295.00,-0.0480
1294.00,-0.0480
1293.00,-0.0480
1292.00,-0.0480
1291.00,-0.0480
1290.00,-0.0480
1289.00,-0.0480
1288.00,-0.0480
1287.00,-0.0479
1286.00,-0.0479
1285.00,-0.0479
1284.00,-0.0479
1283.00,-0.0479
1282.00,-0.0479
1281.00,-0.0479
1280.00,-0.0478
1279.00,-0.0478
1278.00,-0.0478
1277.00,-0.0478
1276.00,-0.0478
1275.00,-0.0478
1274.00,-0.0478
1273.00,-0.0478
1272.00,-0.0477
1271.00,-0.0477
1270.00,-0.0477
1269.00,-0.0477
1268.00,-0.0477
1267.00,-0.0477
1266.00,-0.0477
1265.00,-0.0477
1264.00,-0.0477
1263.00,-0.0477
1262.00,-0.0477
1261.00,-0.0477
1260.00,-0.0477
1259.00,-0.0477
1258.00,-0.0478
1257.00,-0.0478
1256.00,-0.0478
1255.00,-0.0478
1254.00,-0.0479
1253.00,-0.0479
1252.00,-0.0479
1251.00,-0.0479
1250.00,-0.0479
1249.00,-0.0479
1248.00,-0.0479
1247.00,-0.0479
1246.00,-0.0480
1245.00,-0.0480
1244.00,-0.0480
1243.00,-0.0480
1242.00,-0.0480
1241.00,-0.0480
1240.00,-0.0480
1239.00,-0.0480
1238.00,-0.0479
1237.00,-0.0479
1236.00,-0.0479
1235.00,-0.0479
1234.00,-0.0479
1233.00,-0.0479
1232.00,-0.0478
1231.00,-0.0478
1230.00,-0.0478
1229.00,-0.0478
1228.00,-0.0478
1227.00,-0.0477
1226.00,-0.0477
1225.00,-0.0477
1224.00,-0.0477
1223.00,-0.0477
1222.00,-0.0477
1221.00,-0.0477
1220.00,-0.0476
1219.00,-0.0476
1218.00,-0.0476
1217.00,-0.0476
1216.00,-0.0476
1215.00,-0.0475
1214.00,-0.0475
1213.00,-0.0476
1212.00,-0.0476
1211.00,-0.0476
1210.00,-0.0476
1209.00,-0.0476
1208.00,-0.0475
1207.00,-0.0475
1206.00,-0.0475
1205.00,-0.0476
1204.00,-0.0476
1203.00,-0.0476
1202.00,-0.0476
1201.00,-0.0476
1200.00,-0.0476
1199.00,-0.0476
1198.00,-0.0476
1197.00,-0.0476
1196.00,-0.0476
1195.00,-0.0477
1194.00,-0.0477
1193.00,-0.0477
1192.00,-0.0477
1191.00,-0.0477
1190.00,-0.0477
1189.00,-0.0477
1188.00,-0.0477
1187.00,-0.0477
1186.00,-0.0477
1185.00,-0.0477
1184.00,-0.0477
1183.00,-0.0477
1182.00,-0.0477
1181.00,-0.0476
1180.00,-0.0476
1179.00,-0.0476
1178.00,-0.0476
1177.00,-0.0476
1176.00,-0.0476
1175.00,-0.0476
1174.00,-0.0476
1173.00,-0.0475
1172.00,-0.0475
1171.00,-0.0475
1170.00,-0.0475
1169.00,-0.0475
1168.00,-0.0475
1167.00,-0.0474
1166.00,-0.0474
1165.00,-0.0474
1164.00,-0.0474
1163.00,-0.0474
1162.00,-0.0474
1161.00,-0.0474
1160.00,-0.0474
1159.00,-0.0474
1158.00,-0.0474
1157.00,-0.0474
1156.00,-0.0474
1155.00,-0.0474
1154.00,-0.0474
1153.00,-0.0474
1152.00,-0.0474
1151.00,-0.0474
1150.00,-0.0474
1149.00,-0.0475
1148.00,-0.0474
1147.00,-0.0475
1146.00,-0.0475
1145.00,-0.0475
1144.00,-0.0475
1143.00,-0.0475
1142.00,-0.0475
1141.00,-0.0475
1140.00,-0.0475
1139.00,-0.0475
1138.00,-0.0475
1137.00,-0.0475
1136.00,-0.0475
1135.00,-0.0475
1134.00,-0.0475
1133.00,-0.0475
1132.00,-0.0475
1131.00,-0.0475
1130.00,-0.0475
1129.00,-0.0475
1128.00,-0.0475
1127.00,-0.0475
1126.00,-0.0475
1125.00,-0.0475
1124.00,-0.0475
1123.00,-0.0475
1122.00,-0.0475
1121.00,-0.0475
1120.00,-0.0475
1119.00,-0.0474
1118.00,-0.0474
1117.00,-0.0474
1116.00,-0.0474
1115.00,-0.0474
1114.00,-0.0474
1113.00,-0.0474
1112.00,-0.0474
1111.00,-0.0474
1110.00,-0.0474
1109.00,-0.0474
1108.00,-0.0474
1107.00,-0.0474
1106.00,-0.0474
1105.00,-0.0474
1104.00,-0.0474
1103.00,-0.0473
1102.00,-0.0474
1101.00,-0.0474
1100.00,-0.0474
1099.00,-0.0474
1098.00,-0.0474
1097.00,-0.0474
1096.00,-0.0474
1095.00,-0.0474
1094.00,-0.0474
1093.00,-0.0474
1092.00,-0.0474
1091.00,-0.0475
1090.00,-0.0475
1089.00,-0.0475
1088.00,-0.0475
1087.00,-0.0475
1086.00,-0.0475
1085.00,-0.0475
1084.00,-0.0475
1083.00,-0.0475
1082.00,-0.0475
1081.00,-0.0475
1080.00,-0.0475
1079.00,-0.0475
1078.00,-0.0475
1077.00,-0.0475
1076.00,-0.0475
1075.00,-0.0475
1074.00,-0.0475
1073.00,-0.0475
1072.00,-0.0475
1071.00,-0.0474
1070.00,-0.0474
1069.00,-0.0474
1068.00,-0.0474
1067.00,-0.0474
1066.00,-0.0474
1065.00,-0.0474
1064.00,-0.0474
1063.00,-0.0474
1062.00,-0.0474
1061.00,-0.0474
1060.00,-0.0473
1059.00,-0.0473
1058.00,-0.0473
1057.00,-0.0473
1056.00,-0.0473
1055.00,-0.0473
1054.00,-0.0473
1053.00,-0.0473
1052.00,-0.0473
1051.00,-0.0473
1050.00,-0.0473
1049.00,-0.0473
1048.00,-0.0473
1047.00,-0.0473
1046.00,-0.0474
1045.00,-0.0474
1044.00,-0.0475
1043.00,-0.0475
1042.00,-0.0475
1041.00,-0.0475
1040.00,-0.0475
1039.00,-0.0476
1038.00,-0.0476
1037.00,-0.0476
1036.00,-0.0476
1035.00,-0.0476
1034.00,-0.0476
1033.00,-0.0476
1032.00,-0.0476
1031.00,-0.0477
1030.00,-0.0477
1029.00,-0.0477
1028.00,-0.0477
1027.00,-0.0477
1026.00,-0.0478
1025.00,-0.0478
1024.00,-0.0478
1023.00,-0.0478
1022.00,-0.0478
1021.00,-0.0478
1020.00,-0.0478
1019.00,-0.0478
1018.00,-0.0478
1017.00,-0.0478
1016.00,-0.0478
1015.00,-0.0478
1014.00,-0.0478
1013.00,-0.0478
1012.00,-0.0478
1011.00,-0.0478
1010.00,-0.0478
1009.00,-0.0479
1008.00,-0.0478
1007.00,-0.0478
1006.00,-0.0478
1005.00,-0.0478
1004.00,-0.0478
1003.00,-0.0479
1002.00,-0.0479
1001.00,-0.0479
1000.00,-0.0479
999.00,-0.0479
998.00,-0.0479
997.00,-0.0480
996.00,-0.0480
995.00,-0.0480
994.00,-0.0480
993.00,-0.0480
992.00,-0.0480
991.00,-0.0480
990.00,-0.0480
989.00,-0.0481
988.00,-0.0481
987.00,-0.0481
986.00,-0.0482
985.00,-0.0482
984.00,-0.0482
983.00,-0.0482
982.00,-0.0482
981.00,-0.0482
980.00,-0.0482
979.00,-0.0482
978.00,-0.0483
977.00,-0.0483
976.00,-0.0483
975.00,-0.0483
974.00,-0.0483
973.00,-0.0483
972.00,-0.0483
971.00,-0.0483
970.00,-0.0483
969.00,-0.0483
968.00,-0.0483
967.00,-0.0484
966.00,-0.0484
965.00,-0.0484
964.00,-0.0484
963.00,-0.0483
962.00,-0.0483
961.00,-0.0483
960.00,-0.0483
959.00,-0.0483
958.00,-0.0483
957.00,-0.0483
956.00,-0.0483
955.00,-0.0483
954.00,-0.0483
953.00,-0.0484
952.00,-0.0484
951.00,-0.0484
950.00,-0.0484
949.00,-0.0484
948.00,-0.0484
947.00,-0.0484
946.00,-0.0484
945.00,-0.0484
944.00,-0.0484
943.00,-0.0484
942.00,-0.0484
941.00,-0.0484
940.00,-0.0484
939.00,-0.0485
938.00,-0.0485
937.00,-0.0485
936.00,-0.0485
935.00,-0.0485
934.00,-0.0485
933.00,-0.0485
932.00,-0.0485
931.00,-0.0485
930.00,-0.0486
929.00,-0.0486
928.00,-0.0486
927.00,-0.0486
926.00,-0.0486
925.00,-0.0486
924.00,-0.0486
923.00,-0.0486
922.00,-0.0486
921.00,-0.0486
920.00,-0.0486
919.00,-0.0486
918.00,-0.0486
917.00,-0.0486
916.00,-0.0486
915.00,-0.0486
914.00,-0.0486
913.00,-0.0486
912.00,-0.0486
911.00,-0.0486
910.00,-0.0486
909.00,-0.0485
908.00,-0.0485
907.00,-0.0485
906.00,-0.0485
905.00,-0.0485
904.00,-0.0485
903.00,-0.0485
902.00,-0.0485
901.00,-0.0485
900.00,-0.0484
899.00,-0.0484
898.00,-0.0484
897.00,-0.0484
896.00,-0.0484
895.00,-0.0484
894.00,-0.0484
893.00,-0.0485
892.00,-0.0485
891.00,-0.0485
890.00,-0.0485
889.00,-0.0485
888.00,-0.0485
887.00,-0.0485
886.00,-0.0485
885.00,-0.0485
884.00,-0.0485
883.00,-0.0485
882.00,-0.0485
881.00,-0.0485
880.00,-0.0485
879.00,-0.0485
878.00,-0.0485
877.00,-0.0485
876.00,-0.0485
875.00,-0.0485
874.00,-0.0485
873.00,-0.0485
872.00,-0.0485
871.00,-0.0485
870.00,-0.0485
869.00,-0.0485
868.00,-0.0485
867.00,-0.0485
866.00,-0.0485
865.00,-0.0485
864.00,-0.0485
863.00,-0.0485
862.00,-0.0485
861.00,-0.0485
860.00,-0.0485
859.00,-0.0485
858.00,-0.0485
857.00,-0.0485
856.00,-0.0485
855.00,-0.0485
854.00,-0.0485
853.00,-0.0485
852.00,-0.0485
851.00,-0.0484
850.00,-0.0484
849.00,-0.0484
848.00,-0.0484
847.00,-0.0484
846.00,-0.0484
845.00,-0.0484
844.00,-0.0484
843.00,-0.0484
842.00,-0.0484
841.00,-0.0484
840.00,-0.0484
839.00,-0.0483
838.00,-0.0484
837.00,-0.0484
836.00,-0.0484
835.00,-0.0484
834.00,-0.0484
833.00,-0.0484
832.00,-0.0484
831.00,-0.0483
830.00,-0.0483
829.00,-0.0483
828.00,-0.0483
827.00,-0.0483
826.00,-0.0483
825.00,-0.0483
824.00,-0.0483
823.00,-0.0483
822.00,-0.0483
821.00,-0.0483
820.00,-0.0483
819.00,-0.0483
818.00,-0.0484
817.00,-0.0484
816.00,-0.0484
815.00,-0.0484
814.00,-0.0484
813.00,-0.0484
812.00,-0.0484
811.00,-0.0484
810.00,-0.0484
809.00,-0.0484
808.00,-0.0484
807.00,-0.0484
806.00,-0.0484
805.00,-0.0484
804.00,-0.0484
803.00,-0.0485
802.00,-0.0485
801.00,-0.0484
800.00,-0.0484
799.00,-0.0484
798.00,-0.0484
797.00,-0.0485
796.00,-0.0485
795.00,-0.0485
794.00,-0.0485
793.00,-0.0485
792.00,-0.0485
791.00,-0.0485
790.00,-0.0485
789.00,-0.0485
788.00,-0.0485
787.00,-0.0484
786.00,-0.0484
785.00,-0.0485
784.00,-0.0485
783.00,-0.0485
782.00,-0.0485
781.00,-0.0485
780.00,-0.0485
779.00,-0.0485
778.00,-0.0485
777.00,-0.0485
776.00,-0.0485
775.00,-0.0485
774.00,-0.0485
773.00,-0.0485
772.00,-0.0485
771.00,-0.0485
770.00,-0.0485
769.00,-0.0485
768.00,-0.0485
767.00,-0.0485
766.00,-0.0485
765.00,-0.0485
764.00,-0.0485
763.00,-0.0485
762.00,-0.0485
761.00,-0.0485
760.00,-0.0485
759.00,-0.0485
758.00,-0.0485
757.00,-0.0485
756.00,-0.0485
755.00,-0.0484
754.00,-0.0484
753.00,-0.0484
752.00,-0.0484
751.00,-0.0484
750.00,-0.0484
749.00,-0.0484
748.00,-0.0483
747.00,-0.0483
746.00,-0.0483
745.00,-0.0483
744.00,-0.0483
743.00,-0.0483
742.00,-0.0483
741.00,-0.0483
740.00,-0.0483
739.00,-0.0483
738.00,-0.0483
737.00,-0.0483
736.00,-0.0483
735.00,-0.0483
734.00,-0.0483
733.00,-0.0483
732.00,-0.0483
731.00,-0.0483
730.00,-0.0483
729.00,-0.0483
728.00,-0.0483
727.00,-0.0483
726.00,-0.0483
725.00,-0.0483
724.00,-0.0483
723.00,-0.0484
722.00,-0.0484
721.00,-0.0484
720.00,-0.0484
719.00,-0.0484
718.00,-0.0483
717.00,-0.0484
716.00,-0.0484
715.00,-0.0484
714.00,-0.0484
713.00,-0.0484
712.00,-0.0483
711.00,-0.0483
710.00,-0.0483
709.00,-0.0483
708.00,-0.0483
707.00,-0.0483
706.00,-0.0483
705.00,-0.0483
704.00,-0.0483
703.00,-0.0483
702.00,-0.0483
701.00,-0.0483
700.00,-0.0483
699.00,-0.0482
698.00,-0.0482
697.00,-0.0482
696.00,-0.0482
695.00,-0.0482
694.00,-0.0482
693.00,-0.0482
692.00,-0.0482
691.00,-0.0481
690.00,-0.0481
689.00,-0.0481
688.00,-0.0481
687.00,-0.0481
686.00,-0.0481
685.00,-0.0481
684.00,-0.0481
683.00,-0.0481
682.00,-0.0481
681.00,-0.0481
680.00,-0.0481
679.00,-0.0481
678.00,-0.0482
677.00,-0.0482
676.00,-0.0482
675.00,-0.0482
674.00,-0.0482
673.00,-0.0481
672.00,-0.0481
671.00,-0.0481
670.00,-0.0480
669.00,-0.0477
668.00,-0.0474
667.00,-0.0473
666.00,-0.0475
665.00,-0.0478
664.00,-0.0480
663.00,-0.0481
662.00,-0.0481
661.00,-0.0481
660.00,-0.0481
659.00,-0.0481
658.00,-0.0481
657.00,-0.0481
656.00,-0.0481
655.00,-0.0481
654.00,-0.0481
653.00,-0.0481
652.00,-0.0481
651.00,-0.0481
650.00,-0.0481
649.00,-0.0481
648.00,-0.0481
647.00,-0.0480
646.00,-0.0480
645.00,-0.0480
644.00,-0.0479
643.00,-0.0479
642.00,-0.0479
641.00,-0.0479
640.00,-0.0479
639.00,-0.0479
638.00,-0.0479
637.00,-0.0479
636.00,-0.0479
635.00,-0.0479
634.00,-0.0479
633.00,-0.0479
632.00,-0.0479
631.00,-0.0478
630.00,-0.0478
629.00,-0.0479
628.00,-0.0479
627.00,-0.0479
626.00,-0.0479
625.00,-0.0478
624.00,-0.0478
623.00,-0.0478
622.00,-0.0479
621.00,-0.0479
620.00,-0.0479
619.00,-0.0479
618.00,-0.0479
617.00,-0.0479
616.00,-0.0479
615.00,-0.0479
614.00,-0.0479
613.00,-0.0479
612.00,-0.0479
611.00,-0.0479
610.00,-0.0479
609.00,-0.0479
608.00,-0.0479
607.00,-0.0479
606.00,-0.0479
605.00,-0.0479
604.00,-0.0479
603.00,-0.0479
602.00,-0.0479
601.00,-0.0480
600.00,-0.0480
599.00,-0.0480
598.00,-0.0480
597.00,-0.0480
596.00,-0.0480
595.00,-0.0480
594.00,-0.0479
593.00,-0.0479
592.00,-0.0479
591.00,-0.0479
590.00,-0.0479
589.00,-0.0479
588.00,-0.0479
587.00,-0.0479
586.00,-0.0478
585.00,-0.0478
584.00,-0.0478
583.00,-0.0478
582.00,-0.0478
581.00,-0.0478
580.00,-0.0478
579.00,-0.0478
578.00,-0.0478
577.00,-0.0478
576.00,-0.0478
575.00,-0.0478
574.00,-0.0479
573.00,-0.0479
572.00,-0.0479
571.00,-0.0479
570.00,-0.0479
569.00,-0.0479
568.00,-0.0480
567.00,-0.0480
566.00,-0.0480
565.00,-0.0480
564.00,-0.0480
563.00,-0.0480
562.00,-0.0480
561.00,-0.0479
560.00,-0.0479
559.00,-0.0480
558.00,-0.0480
557.00,-0.0481
556.00,-0.0482
555.00,-0.0482
554.00,-0.0482
553.00,-0.0482
552.00,-0.0482
551.00,-0.0482
550.00,-0.0483
549.00,-0.0484
548.00,-0.0484
547.00,-0.0483
546.00,-0.0483
545.00,-0.0483
544.00,-0.0482
543.00,-0.0482
542.00,-0.0482
541.00,-0.0482
540.00,-0.0482
539.00,-0.0482
538.00,-0.0483
537.00,-0.0483
536.00,-0.0484
535.00,-0.0484
534.00,-0.0484
533.00,-0.0484
532.00,-0.0484
531.00,-0.0484
530.00,-0.0484
529.00,-0.0484
528.00,-0.0484
527.00,-0.0484
526.00,-0.0483
525.00,-0.0484
524.00,-0.0485
523.00,-0.0486
522.00,-0.0486
521.00,-0.0487
520.00,-0.0486
519.00,-0.0486
518.00,-0.0485
517.00,-0.0485
516.00,-0.0486
515.00,-0.0486
514.00,-0.0486
513.00,-0.0486
512.00,-0.0486
511.00,-0.0486
510.00,-0.0487
509.00,-0.0487
508.00,-0.0487
507.00,-0.0486
506.00,-0.0486
505.00,-0.0486
504.00,-0.0485
503.00,-0.0485
502.00,-0.0485
501.00,-0.0485
500.00,-0.0486
