Created as New Dataset,Sample 023 By Analyst Date Thursday, March 27 2025
cm-1,A
4000.00,-0.0485
3999.00,-0.0485
3998.00,-0.0485
3997.00,-0.0485
3996.00,-0.0484
3995.00,-0.0484
3994.00,-0.0484
3993.00,-0.0484
3992.00,-0.0484
3991.00,-0.0484
3990.00,-0.0484
3989.00,-0.0484
3988.00,-0.0484
3987.00,-0.0483
3986.00,-0.0483
3985.00,-0.0483
3984.00,-0.0483
3983.00,-0.0483
3982.00,-0.0483
3981.00,-0.0483
3980.00,-0.0483
3979.00,-0.0482
3978.00,-0.0482
3977.00,-0.0482
3976.00,-0.0482
3975.00,-0.0482
3974.00,-0.0482
3973.00,-0.0482
3972.00,-0.0482
3971.00,-0.0482
3970.00,-0.0482
3969.00,-0.0482
3968.00,-0.0482
3967.00,-0.0482
3966.00,-0.0482
3965.00,-0.0481
3964.00,-0.0481
3963.00,-0.0481
3962.00,-0.0481
3961.00,-0.0482
3960.00,-0.0482
3959.00,-0.0482
3958.00,-0.0482
3957.00,-0.0482
3956.00,-0.0482
3955.00,-0.0482
3954.00,-0.0482
3953.00,-0.0481
3952.00,-0.0481
3951.00,-0.0480
3950.00,-0.0480
3949.00,-0.0480
3948.00,-0.0480
3947.00,-0.0479
3946.00,-0.0479
3945.00,-0.0479
3944.00,-0.0479
3943.00,-0.0480
3942.00,-0.0481
3941.00,-0.0481
3940.00,-0.0481
3939.00,-0.0481
3938.00,-0.0480
3937.00,-0.0480
3936.00,-0.0480
3935.00,-0.0479
3934.00,-0.0478
3933.00,-0.0477
3932.00,-0.0478
3931.00,-0.0478
3930.00,-0.0478
3929.00,-0.0478
3928.00,-0.0478
3927.00,-0.0477
3926.00,-0.0477
3925.00,-0.0477
3924.00,-0.0478
3923.00,-0.0478
3922.00,-0.0477
3921.00,-0.0475
3920.00,-0.0475
3919.00,-0.0474
3918.00,-0.0475
3917.00,-0.0475
3916.00,-0.0476
3915.00,-0.0477
3914.00,-0.0477
3913.00,-0.0478
3912.00,-0.0478
3911.00,-0.0479
3910.00,-0.0479
3909.00,-0.0478
3908.00,-0.0478
3907.00,-0.0476
3906.00,-0.0474
3905.00,-0.0472
3904.00,-0.0470
3903.00,-0.0468
3902.00,-0.0467
3901.00,-0.0466
3900.00,-0.0466
3899.00,-0.0468
3898.00,-0.0470
3897.00,-0.0472
3896.00,-0.0472
3895.00,-0.0473
3894.00,-0.0474
3893.00,-0.0475
3892.00,-0.0475
3891.00,-0.0476
3890.00,-0.0476
3889.00,-0.0475
3888.00,-0.0472
3887.00,-0.0469
3886.00,-0.0468
3885.00,-0.0470
3884.00,-0.0471
3883.00,-0.0470
3882.00,-0.0468
3881.00,-0.0468
3880.00,-0.0470
3879.00,-0.0473
3878.00,-0.0473
3877.00,-0.0471
3876.00,-0.0469
3875.00,-0.0469
3874.00,-0.0471
3873.00,-0.0472
3872.00,-0.0471
3871.00,-0.0467
3870.00,-0.0465
3869.00,-0.0466
3868.00,-0.0467
3867.00,-0.0466
3866.00,-0.0464
3865.00,-0.0464
3864.00,-0.0467
3863.00,-0.0469
3862.00,-0.0469
3861.00,-0.0469
3860.00,-0.0469
3859.00,-0.0470
3858.00,-0.0473
3857.00,-0.0477
3856.00,-0.0478
3855.00,-0.0476
3854.00,-0.0471
3853.00,-0.0467
3852.00,-0.0466
3851.00,-0.0464
3850.00,-0.0464
3849.00,-0.0464
3848.00,-0.0467
3847.00,-0.0469
3846.00,-0.0471
3845.00,-0.0471
3844.00,-0.0471
3843.00,-0.0470
3842.00,-0.0470
3841.00,-0.0469
3840.00,-0.0468
3839.00,-0.0467
3838.00,-0.0465
3837.00,-0.0465
3836.00,-0.0465
3835.00,-0.0465
3834.00,-0.0466
3833.00,-0.0466
3832.00,-0.0468
3831.00,-0.0469
3830.00,-0.0470
3829.00,-0.0471
3828.00,-0.0470
3827.00,-0.0470
3826.00,-0.0471
3825.00,-0.0471
3824.00,-0.0470
3823.00,-0.0467
3822.00,-0.0464
3821.00,-0.0464
3820.00,-0.0467
3819.00,-0.0468
3818.00,-0.0465
3817.00,-0.0463
3816.00,-0.0463
3815.00,-0.0466
3814.00,-0.0469
3813.00,-0.0470
3812.00,-0.0469
3811.00,-0.0470
3810.00,-0.0472
3809.00,-0.0473
3808.00,-0.0471
3807.00,-0.0469
3806.00,-0.0469
3805.00,-0.0469
3804.00,-0.0467
3803.00,-0.0464
3802.00,-0.0463
3801.00,-0.0464
3800.00,-0.0466
3799.00,-0.0466
3798.00,-0.0465
3797.00,-0.0465
3796.00,-0.0468
3795.00,-0.0471
3794.00,-0.0473
3793.00,-0.0474
3792.00,-0.0474
3791.00,-0.0475
3790.00,-0.0476
3789.00,-0.0477
3788.00,-0.0477
3787.00,-0.0476
3786.00,-0.0476
3785.00,-0.0476
3784.00,-0.0475
3783.00,-0.0475
3782.00,-0.0474
3781.00,-0.0473
3780.00,-0.0473
3779.00,-0.0474
3778.00,-0.0475
3777.00,-0.0475
3776.00,-0.0474
3775.00,-0.0474
3774.00,-0.0474
3773.00,-0.0474
3772.00,-0.0473
3771.00,-0.0472
3770.00,-0.0471
3769.00,-0.0471
3768.00,-0.0471
3767.00,-0.0469
3766.00,-0.0468
3765.00,-0.0469
3764.00,-0.0470
3763.00,-0.0470
3762.00,-0.0469
3761.00,-0.0467
3760.00,-0.0467
3759.00,-0.0468
3758.00,-0.0468
3757.00,-0.0467
3756.00,-0.0467
3755.00,-0.0466
3754.00,-0.0464
3753.00,-0.0463
3752.00,-0.0461
3751.00,-0.0459
3750.00,-0.0456
3749.00,-0.0455
3748.00,-0.0455
3747.00,-0.0456
3746.00,-0.0455
3745.00,-0.0453
3744.00,-0.0454
3743.00,-0.0457
3742.00,-0.0457
3741.00,-0.0455
3740.00,-0.0453
3739.00,-0.0453
3738.00,-0.0453
3737.00,-0.0452
3736.00,-0.0452
3735.00,-0.0454
3734.00,-0.0456
3733.00,-0.0456
3732.00,-0.0456
3731.00,-0.0458
3730.00,-0.0460
3729.00,-0.0461
3728.00,-0.0461
3727.00,-0.0461
3726.00,-0.0462
3725.00,-0.0464
3724.00,-0.0464
3723.00,-0.0463
3722.00,-0.0464
3721.00,-0.0465
3720.00,-0.0466
3719.00,-0.0467
3718.00,-0.0467
3717.00,-0.0467
3716.00,-0.0467
3715.00,-0.0466
3714.00,-0.0464
3713.00,-0.0462
3712.00,-0.0461
3711.00,-0.0462
3710.00,-0.0462
3709.00,-0.0463
3708.00,-0.0463
3707.00,-0.0464
3706.00,-0.0466
3705.00,-0.0467
3704.00,-0.0468
3703.00,-0.0469
3702.00,-0.0471
3701.00,-0.0472
3700.00,-0.0473
3699.00,-0.0473
3698.00,-0.0472
3697.00,-0.0472
3696.00,-0.0473
3695.00,-0.0474
3694.00,-0.0473
3693.00,-0.0472
3692.00,-0.0472
3691.00,-0.0472
3690.00,-0.0472
3689.00,-0.0470
3688.00,-0.0469
3687.00,-0.0469
3686.00,-0.0470
3685.00,-0.0471
3684.00,-0.0472
3683.00,-0.0474
3682.00,-0.0475
3681.00,-0.0475
3680.00,-0.0475
3679.00,-0.0475
3678.00,-0.0473
3677.00,-0.0469
3676.00,-0.0466
3675.00,-0.0466
3674.00,-0.0467
3673.00,-0.0466
3672.00,-0.0462
3671.00,-0.0460
3670.00,-0.0463
3669.00,-0.0468
3668.00,-0.0471
3667.00,-0.0472
3666.00,-0.0472
3665.00,-0.0474
3664.00,-0.0476
3663.00,-0.0478
3662.00,-0.0478
3661.00,-0.0479
3660.00,-0.0478
3659.00,-0.0478
3658.00,-0.0476
3657.00,-0.0474
3656.00,-0.0473
3655.00,-0.0472
3654.00,-0.0470
3653.00,-0.0466
3652.00,-0.0462
3651.00,-0.0459
3650.00,-0.0458
3649.00,-0.0458
3648.00,-0.0458
3647.00,-0.0459
3646.00,-0.0461
3645.00,-0.0464
3644.00,-0.0467
3643.00,-0.0469
3642.00,-0.0472
3641.00,-0.0475
3640.00,-0.0476
3639.00,-0.0476
3638.00,-0.0476
3637.00,-0.0476
3636.00,-0.0475
3635.00,-0.0473
3634.00,-0.0473
3633.00,-0.0472
3632.00,-0.0471
3631.00,-0.0469
3630.00,-0.0466
3629.00,-0.0465
3628.00,-0.0466
3627.00,-0.0466
3626.00,-0.0465
3625.00,-0.0465
3624.00,-0.0466
3623.00,-0.0468
3622.00,-0.0469
3621.00,-0.0469
3620.00,-0.0468
3619.00,-0.0468
3618.00,-0.0467
3617.00,-0.0466
3616.00,-0.0464
3615.00,-0.0463
3614.00,-0.0464
3613.00,-0.0465
3612.00,-0.0466
3611.00,-0.0465
3610.00,-0.0464
3609.00,-0.0464
3608.00,-0.0465
3607.00,-0.0467
3606.00,-0.0469
3605.00,-0.0470
3604.00,-0.0470
3603.00,-0.0471
3602.00,-0.0472
3601.00,-0.0472
3600.00,-0.0473
3599.00,-0.0473
3598.00,-0.0472
3597.00,-0.0471
3596.00,-0.0471
3595.00,-0.0471
3594.00,-0.0472
3593.00,-0.0472
3592.00,-0.0471
3591.00,-0.0470
3590.00,-0.0468
3589.00,-0.0467
3588.00,-0.0467
3587.00,-0.0469
3586.00,-0.0471
3585.00,-0.0471
3584.00,-0.0471
3583.00,-0.0472
3582.00,-0.0474
3581.00,-0.0476
3580.00,-0.0478
3579.00,-0.0478
3578.00,-0.0479
3577.00,-0.0479
3576.00,-0.0479
3575.00,-0.0479
3574.00,-0.0479
3573.00,-0.0478
3572.00,-0.0477
3571.00,-0.0475
3570.00,-0.0472
3569.00,-0.0470
3568.00,-0.0468
3567.00,-0.0469
3566.00,-0.0470
3565.00,-0.0471
3564.00,-0.0472
3563.00,-0.0472
3562.00,-0.0474
3561.00,-0.0476
3560.00,-0.0478
3559.00,-0.0479
3558.00,-0.0479
3557.00,-0.0479
3556.00,-0.0479
3555.00,-0.0478
3554.00,-0.0478
3553.00,-0.0478
3552.00,-0.0478
3551.00,-0.0478
3550.00,-0.0477
3549.00,-0.0475
3548.00,-0.0474
3547.00,-0.0474
3546.00,-0.0474
3545.00,-0.0475
3544.00,-0.0476
3543.00,-0.0476
3542.00,-0.0477
3541.00,-0.0478
3540.00,-0.0478
3539.00,-0.0479
3538.00,-0.0479
3537.00,-0.0479
3536.00,-0.0480
3535.00,-0.0480
3534.00,-0.0479
3533.00,-0.0479
3532.00,-0.0479
3531.00,-0.0478
3530.00,-0.0478
3529.00,-0.0478
3528.00,-0.0477
3527.00,-0.0477
3526.00,-0.0476
3525.00,-0.0476
3524.00,-0.0477
3523.00,-0.0477
3522.00,-0.0478
3521.00,-0.0479
3520.00,-0.0479
3519.00,-0.0480
3518.00,-0.0480
3517.00,-0.0480
3516.00,-0.0481
3515.00,-0.0480
3514.00,-0.0480
3513.00,-0.0480
3512.00,-0.0479
3511.00,-0.0479
3510.00,-0.0479
3509.00,-0.0479
3508.00,-0.0479
3507.00,-0.0478
3506.00,-0.0477
3505.00,-0.0477
3504.00,-0.0477
3503.00,-0.0477
3502.00,-0.0478
3501.00,-0.0478
3500.00,-0.0478
3499.00,-0.0478
3498.00,-0.0478
3497.00,-0.0478
3496.00,-0.0479
3495.00,-0.0479
3494.00,-0.0479
3493.00,-0.0479
3492.00,-0.0479
3491.00,-0.0479
3490.00,-0.0479
3489.00,-0.0479
3488.00,-0.0479
3487.00,-0.0479
3486.00,-0.0479
3485.00,-0.0479
3484.00,-0.0479
3483.00,-0.0479
3482.00,-0.0479
3481.00,-0.0480
3480.00,-0.0480
3479.00,-0.0480
3478.00,-0.0480
3477.00,-0.0481
3476.00,-0.0481
3475.00,-0.0481
3474.00,-0.0482
3473.00,-0.0482
3472.00,-0.0482
3471.00,-0.0482
3470.00,-0.0482
3469.00,-0.0482
3468.00,-0.0482
3467.00,-0.0482
3466.00,-0.0482
3465.00,-0.0482
3464.00,-0.0482
3463.00,-0.0482
3462.00,-0.0482
3461.00,-0.0482
3460.00,-0.0482
3459.00,-0.0482
3458.00,-0.0482
3457.00,-0.0482
3456.00,-0.0482
3455.00,-0.0482
3454.00,-0.0482
3453.00,-0.0482
3452.00,-0.0482
3451.00,-0.0482
3450.00,-0.0481
3449.00,-0.0481
3448.00,-0.0481
3447.00,-0.0481
3446.00,-0.0481
3445.00,-0.0481
3444.00,-0.0481
3443.00,-0.0481
3442.00,-0.0481
3441.00,-0.0481
3440.00,-0.0482
3439.00,-0.0482
3438.00,-0.0482
3437.00,-0.0482
3436.00,-0.0482
3435.00,-0.0483
3434.00,-0.0483
3433.00,-0.0483
3432.00,-0.0483
3431.00,-0.0483
3430.00,-0.0483
3429.00,-0.0483
3428.00,-0.0483
3427.00,-0.0483
3426.00,-0.0483
3425.00,-0.0483
3424.00,-0.0483
3423.00,-0.0483
3422.00,-0.0483
3421.00,-0.0483
3420.00,-0.0483
3419.00,-0.0483
3418.00,-0.0483
3417.00,-0.0483
3416.00,-0.0483
3415.00,-0.0483
3414.00,-0.0483
3413.00,-0.0483
3412.00,-0.0483
3411.00,-0.0483
3410.00,-0.0483
3409.00,-0.0483
3408.00,-0.0482
3407.00,-0.0482
3406.00,-0.0482
3405.00,-0.0482
3404.00,-0.0481
3403.00,-0.0481
3402.00,-0.0481
3401.00,-0.0481
3400.00,-0.0480
3399.00,-0.0480
3398.00,-0.0480
3397.00,-0.0479
3396.00,-0.0479
3395.00,-0.0479
3394.00,-0.0479
3393.00,-0.0479
3392.00,-0.0479
3391.00,-0.0479
3390.00,-0.0479
3389.00,-0.0479
3388.00,-0.0479
3387.00,-0.0479
3386.00,-0.0479
3385.00,-0.0479
3384.00,-0.0479
3383.00,-0.0479
3382.00,-0.0479
3381.00,-0.0479
3380.00,-0.0479
3379.00,-0.0479
3378.00,-0.0479
3377.00,-0.0479
3376.00,-0.0479
3375.00,-0.0479
3374.00,-0.0479
3373.00,-0.0479
3372.00,-0.0479
3371.00,-0.0479
3370.00,-0.0479
3369.00,-0.0479
3368.00,-0.0479
3367.00,-0.0479
3366.00,-0.0479
3365.00,-0.0479
3364.00,-0.0479
3363.00,-0.0479
3362.00,-0.0479
3361.00,-0.0478
3360.00,-0.0478
3359.00,-0.0478
3358.00,-0.0478
3357.00,-0.0478
3356.00,-0.0478
3355.00,-0.0478
3354.00,-0.0478
3353.00,-0.0478
3352.00,-0.0478
3351.00,-0.0478
3350.00,-0.0478
3349.00,-0.0478
3348.00,-0.0478
3347.00,-0.0478
3346.00,-0.0478
3345.00,-0.0478
3344.00,-0.0478
3343.00,-0.0478
3342.00,-0.0478
3341.00,-0.0477
3340.00,-0.0477
3339.00,-0.0477
3338.00,-0.0477
3337.00,-0.0477
3336.00,-0.0478
3335.00,-0.0478
3334.00,-0.0478
3333.00,-0.0478
3332.00,-0.0478
3331.00,-0.0478
3330.00,-0.0478
3329.00,-0.0478
3328.00,-0.0479
3327.00,-0.0479
3326.00,-0.0479
3325.00,-0.0479
3324.00,-0.0480
3323.00,-0.0480
3322.00,-0.0480
3321.00,-0.0480
3320.00,-0.0480
3319.00,-0.0480
3318.00,-0.0481
3317.00,-0.0481
3316.00,-0.0481
3315.00,-0.0481
3314.00,-0.0481
3313.00,-0.0481
3312.00,-0.0481
3311.00,-0.0481
3310.00,-0.0482
3309.00,-0.0482
3308.00,-0.0482
3307.00,-0.0482
3306.00,-0.0483
3305.00,-0.0483
3304.00,-0.0483
3303.00,-0.0483
3302.00,-0.0483
3301.00,-0.0483
3300.00,-0.0483
3299.00,-0.0483
3298.00,-0.0483
3297.00,-0.0482
3296.00,-0.0482
3295.00,-0.0481
3294.00,-0.0481
3293.00,-0.0481
3292.00,-0.0481
3291.00,-0.0480
3290.00,-0.0480
3289.00,-0.0480
3288.00,-0.0479
3287.00,-0.0479
3286.00,-0.0479
3285.00,-0.0479
3284.00,-0.0479
3283.00,-0.0479
3282.00,-0.0479
3281.00,-0.0478
3280.00,-0.0478
3279.00,-0.0478
3278.00,-0.0478
3277.00,-0.0478
3276.00,-0.0478
3275.00,-0.0478
3274.00,-0.0478
3273.00,-0.0478
3272.00,-0.0478
3271.00,-0.0478
3270.00,-0.0478
3269.00,-0.0478
3268.00,-0.0478
3267.00,-0.0478
3266.00,-0.0478
3265.00,-0.0478
3264.00,-0.0478
3263.00,-0.0478
3262.00,-0.0478
3261.00,-0.0478
3260.00,-0.0478
3259.00,-0.0478
3258.00,-0.0478
3257.00,-0.0478
3256.00,-0.0478
3255.00,-0.0478
3254.00,-0.0478
3253.00,-0.0478
3252.00,-0.0478
3251.00,-0.0478
3250.00,-0.0478
3249.00,-0.0478
3248.00,-0.0478
3247.00,-0.0478
3246.00,-0.0478
3245.00,-0.0478
3244.00,-0.0478
3243.00,-0.0478
3242.00,-0.0478
3241.00,-0.0477
3240.00,-0.0477
3239.00,-0.0477
3238.00,-0.0477
3237.00,-0.0477
3236.00,-0.0477
3235.00,-0.0477
3234.00,-0.0477
3233.00,-0.0477
3232.00,-0.0477
3231.00,-0.0478
3230.00,-0.0478
3229.00,-0.0478
3228.00,-0.0478
3227.00,-0.0478
3226.00,-0.0478
3225.00,-0.0478
3224.00,-0.0478
3223.00,-0.0478
3222.00,-0.0478
3221.00,-0.0478
3220.00,-0.0479
3219.00,-0.0479
3218.00,-0.0479
3217.00,-0.0479
3216.00,-0.0479
3215.00,-0.0480
3214.00,-0.0480
3213.00,-0.0480
3212.00,-0.0480
3211.00,-0.0480
3210.00,-0.0480
3209.00,-0.0481
3208.00,-0.0481
3207.00,-0.0481
3206.00,-0.0481
3205.00,-0.0481
3204.00,-0.0481
3203.00,-0.0481
3202.00,-0.0481
3201.00,-0.0481
3200.00,-0.0481
3199.00,-0.0481
3198.00,-0.0481
3197.00,-0.0481
3196.00,-0.0481
3195.00,-0.0481
3194.00,-0.0481
3193.00,-0.0481
3192.00,-0.0481
3191.00,-0.0481
3190.00,-0.0481
3189.00,-0.0481
3188.00,-0.0480
3187.00,-0.0480
3186.00,-0.0480
3185.00,-0.0480
3184.00,-0.0480
3183.00,-0.0480
3182.00,-0.0480
3181.00,-0.0480
3180.00,-0.0480
3179.00,-0.0480
3178.00,-0.0480
3177.00,-0.0480
3176.00,-0.0480
3175.00,-0.0480
3174.00,-0.0479
3173.00,-0.0479
3172.00,-0.0480
3171.00,-0.0480
3170.00,-0.0480
3169.00,-0.0480
3168.00,-0.0480
3167.00,-0.0480
3166.00,-0.0480
3165.00,-0.0480
3164.00,-0.0480
3163.00,-0.0480
3162.00,-0.0480
3161.00,-0.0481
3160.00,-0.0481
3159.00,-0.0481
3158.00,-0.0481
3157.00,-0.0481
3156.00,-0.0481
3155.00,-0.0481
3154.00,-0.0481
3153.00,-0.0481
3152.00,-0.0481
3151.00,-0.0481
3150.00,-0.0481
3149.00,-0.0481
3148.00,-0.0481
3147.00,-0.0481
3146.00,-0.0481
3145.00,-0.0481
3144.00,-0.0481
3143.00,-0.0481
3142.00,-0.0481
3141.00,-0.0481
3140.00,-0.0481
3139.00,-0.0481
3138.00,-0.0480
3137.00,-0.0480
3136.00,-0.0480
3135.00,-0.0480
3134.00,-0.0480
3133.00,-0.0480
3132.00,-0.0480
3131.00,-0.0480
3130.00,-0.0480
3129.00,-0.0480
3128.00,-0.0480
3127.00,-0.0480
3126.00,-0.0480
3125.00,-0.0480
3124.00,-0.0480
3123.00,-0.0480
3122.00,-0.0480
3121.00,-0.0480
3120.00,-0.0480
3119.00,-0.0480
3118.00,-0.0481
3117.00,-0.0481
3116.00,-0.0481
3115.00,-0.0481
3114.00,-0.0482
3113.00,-0.0482
3112.00,-0.0482
3111.00,-0.0482
3110.00,-0.0483
3109.00,-0.0483
3108.00,-0.0483
3107.00,-0.0483
3106.00,-0.0483
3105.00,-0.0483
3104.00,-0.0483
3103.00,-0.0483
3102.00,-0.0483
3101.00,-0.0483
3100.00,-0.0484
3099.00,-0.0484
3098.00,-0.0484
3097.00,-0.0484
3096.00,-0.0484
3095.00,-0.0484
3094.00,-0.0484
3093.00,-0.0484
3092.00,-0.0484
3091.00,-0.0484
3090.00,-0.0484
3089.00,-0.0484
3088.00,-0.0484
3087.00,-0.0484
3086.00,-0.0483
3085.00,-0.0483
3084.00,-0.0483
3083.00,-0.0483
3082.00,-0.0483
3081.00,-0.0483
3080.00,-0.0483
3079.00,-0.0483
3078.00,-0.0483
3077.00,-0.0483
3076.00,-0.0483
3075.00,-0.0483
3074.00,-0.0483
3073.00,-0.0483
3072.00,-0.0483
3071.00,-0.0483
3070.00,-0.0483
3069.00,-0.0483
3068.00,-0.0483
3067.00,-0.0483
3066.00,-0.0483
3065.00,-0.0483
3064.00,-0.0483
3063.00,-0.0483
3062.00,-0.0483
3061.00,-0.0484
3060.00,-0.0484
3059.00,-0.0484
3058.00,-0.0484
3057.00,-0.0484
3056.00,-0.0484
3055.00,-0.0484
3054.00,-0.0484
3053.00,-0.0484
3052.00,-0.0484
3051.00,-0.0484
3050.00,-0.0485
3049.00,-0.0485
3048.00,-0.0485
3047.00,-0.0485
3046.00,-0.0485
3045.00,-0.0485
3044.00,-0.0485
3043.00,-0.0485
3042.00,-0.0485
3041.00,-0.0485
3040.00,-0.0485
3039.00,-0.0485
3038.00,-0.0485
3037.00,-0.0485
3036.00,-0.0484
3035.00,-0.0484
3034.00,-0.0484
3033.00,-0.0484
3032.00,-0.0484
3031.00,-0.0484
3030.00,-0.0484
3029.00,-0.0484
3028.00,-0.0484
3027.00,-0.0484
3026.00,-0.0484
3025.00,-0.0484
3024.00,-0.0484
3023.00,-0.0484
3022.00,-0.0484
3021.00,-0.0484
3020.00,-0.0484
3019.00,-0.0484
3018.00,-0.0483
3017.00,-0.0483
3016.00,-0.0483
3015.00,-0.0483
3014.00,-0.0483
3013.00,-0.0483
3012.00,-0.0483
3011.00,-0.0484
3010.00,-0.0484
3009.00,-0.0484
3008.00,-0.0484
3007.00,-0.0484
3006.00,-0.0484
3005.00,-0.0484
3004.00,-0.0484
3003.00,-0.0484
3002.00,-0.0485
3001.00,-0.0485
3000.00,-0.0485
2999.00,-0.0484
2998.00,-0.0484
2997.00,-0.0484
2996.00,-0.0484
2995.00,-0.0484
2994.00,-0.0484
2993.00,-0.0484
2992.00,-0.0484
2991.00,-0.0484
2990.00,-0.0484
2989.00,-0.0484
2988.00,-0.0484
2987.00,-0.0484
2986.00,-0.0484
2985.00,-0.0484
2984.00,-0.0484
2983.00,-0.0484
2982.00,-0.0484
2981.00,-0.0484
2980.00,-0.0483
2979.00,-0.0483
2978.00,-0.0483
2977.00,-0.0483
2976.00,-0.0483
2975.00,-0.0483
2974.00,-0.0483
2973.00,-0.0483
2972.00,-0.0483
2971.00,-0.0483
2970.00,-0.0483
2969.00,-0.0483
2968.00,-0.0483
2967.00,-0.0483
2966.00,-0.0483
2965.00,-0.0483
2964.00,-0.0483
2963.00,-0.0483
2962.00,-0.0483
2961.00,-0.0483
2960.00,-0.0483
2959.00,-0.0483
2958.00,-0.0484
2957.00,-0.0484
2956.00,-0.0483
2955.00,-0.0483
2954.00,-0.0483
2953.00,-0.0483
2952.00,-0.0484
2951.00,-0.0484
2950.00,-0.0484
2949.00,-0.0484
2948.00,-0.0484
2947.00,-0.0484
2946.00,-0.0484
2945.00,-0.0484
2944.00,-0.0484
2943.00,-0.0484
2942.00,-0.0484
2941.00,-0.0485
2940.00,-0.0485
2939.00,-0.0485
2938.00,-0.0485
2937.00,-0.0485
2936.00,-0.0485
2935.00,-0.0485
2934.00,-0.0485
2933.00,-0.0485
2932.00,-0.0485
2931.00,-0.0485
2930.00,-0.0485
2929.00,-0.0485
2928.00,-0.0485
2927.00,-0.0485
2926.00,-0.0485
2925.00,-0.0484
2924.00,-0.0484
2923.00,-0.0484
2922.00,-0.0484
2921.00,-0.0484
2920.00,-0.0484
2919.00,-0.0484
2918.00,-0.0483
2917.00,-0.0483
2916.00,-0.0483
2915.00,-0.0483
2914.00,-0.0483
2913.00,-0.0483
2912.00,-0.0483
2911.00,-0.0483
2910.00,-0.0483
2909.00,-0.0483
2908.00,-0.0483
2907.00,-0.0483
2906.00,-0.0483
2905.00,-0.0483
2904.00,-0.0483
2903.00,-0.0483
2902.00,-0.0483
2901.00,-0.0483
2900.00,-0.0483
2899.00,-0.0483
2898.00,-0.0483
2897.00,-0.0483
2896.00,-0.0483
2895.00,-0.0483
2894.00,-0.0484
2893.00,-0.0484
2892.00,-0.0484
2891.00,-0.0484
2890.00,-0.0484
2889.00,-0.0484
2888.00,-0.0484
2887.00,-0.0484
2886.00,-0.0484
2885.00,-0.0484
2884.00,-0.0484
2883.00,-0.0484
2882.00,-0.0484
2881.00,-0.0484
2880.00,-0.0484
2879.00,-0.0484
2878.00,-0.0484
2877.00,-0.0484
2876.00,-0.0484
2875.00,-0.0484
2874.00,-0.0484
2873.00,-0.0484
2872.00,-0.0484
2871.00,-0.0484
2870.00,-0.0483
2869.00,-0.0483
2868.00,-0.0483
2867.00,-0.0483
2866.00,-0.0483
2865.00,-0.0483
2864.00,-0.0483
2863.00,-0.0483
2862.00,-0.0483
2861.00,-0.0483
2860.00,-0.0483
2859.00,-0.0483
2858.00,-0.0483
2857.00,-0.0483
2856.00,-0.0483
2855.00,-0.0483
2854.00,-0.0483
2853.00,-0.0484
2852.00,-0.0484
2851.00,-0.0484
2850.00,-0.0484
2849.00,-0.0484
2848.00,-0.0484
2847.00,-0.0484
2846.00,-0.0484
2845.00,-0.0484
2844.00,-0.0484
2843.00,-0.0484
2842.00,-0.0484
2841.00,-0.0484
2840.00,-0.0484
2839.00,-0.0484
2838.00,-0.0485
2837.00,-0.0485
2836.00,-0.0485
2835.00,-0.0485
2834.00,-0.0485
2833.00,-0.0485
2832.00,-0.0485
2831.00,-0.0485
2830.00,-0.0485
2829.00,-0.0485
2828.00,-0.0485
2827.00,-0.0485
2826.00,-0.0485
2825.00,-0.0484
2824.00,-0.0484
2823.00,-0.0484
2822.00,-0.0484
2821.00,-0.0484
2820.00,-0.0484
2819.00,-0.0484
2818.00,-0.0483
2817.00,-0.0483
2816.00,-0.0483
2815.00,-0.0483
2814.00,-0.0483
2813.00,-0.0482
2812.00,-0.0482
2811.00,-0.0482
2810.00,-0.0482
2809.00,-0.0482
2808.00,-0.0482
2807.00,-0.0482
2806.00,-0.0482
2805.00,-0.0482
2804.00,-0.0482
2803.00,-0.0482
2802.00,-0.0482
2801.00,-0.0482
2800.00,-0.0482
2799.00,-0.0482
2798.00,-0.0482
2797.00,-0.0483
2796.00,-0.0483
2795.00,-0.0483
2794.00,-0.0483
2793.00,-0.0483
2792.00,-0.0483
2791.00,-0.0483
2790.00,-0.0483
2789.00,-0.0483
2788.00,-0.0483
2787.00,-0.0483
2786.00,-0.0484
2785.00,-0.0484
2784.00,-0.0484
2783.00,-0.0484
2782.00,-0.0484
2781.00,-0.0484
2780.00,-0.0484
2779.00,-0.0484
2778.00,-0.0484
2777.00,-0.0484
2776.00,-0.0484
2775.00,-0.0483
2774.00,-0.0483
2773.00,-0.0483
2772.00,-0.0483
2771.00,-0.0483
2770.00,-0.0483
2769.00,-0.0483
2768.00,-0.0483
2767.00,-0.0483
2766.00,-0.0483
2765.00,-0.0483
2764.00,-0.0483
2763.00,-0.0482
2762.00,-0.0482
2761.00,-0.0482
2760.00,-0.0482
2759.00,-0.0482
2758.00,-0.0482
2757.00,-0.0482
2756.00,-0.0482
2755.00,-0.0482
2754.00,-0.0482
2753.00,-0.0482
2752.00,-0.0482
2751.00,-0.0482
2750.00,-0.0482
2749.00,-0.0482
2748.00,-0.0482
2747.00,-0.0482
2746.00,-0.0482
2745.00,-0.0482
2744.00,-0.0483
2743.00,-0.0483
2742.00,-0.0483
2741.00,-0.0483
2740.00,-0.0483
2739.00,-0.0483
2738.00,-0.0483
2737.00,-0.0483
2736.00,-0.0483
2735.00,-0.0483
2734.00,-0.0484
2733.00,-0.0484
2732.00,-0.0483
2731.00,-0.0483
2730.00,-0.0483
2729.00,-0.0483
2728.00,-0.0483
2727.00,-0.0483
2726.00,-0.0483
2725.00,-0.0483
2724.00,-0.0483
2723.00,-0.0483
2722.00,-0.0482
2721.00,-0.0482
2720.00,-0.0482
2719.00,-0.0482
2718.00,-0.0482
2717.00,-0.0481
2716.00,-0.0481
2715.00,-0.0481
2714.00,-0.0481
2713.00,-0.0481
2712.00,-0.0481
2711.00,-0.0480
2710.00,-0.0480
2709.00,-0.0480
2708.00,-0.0480
2707.00,-0.0480
2706.00,-0.0480
2705.00,-0.0480
2704.00,-0.0480
2703.00,-0.0480
2702.00,-0.0480
2701.00,-0.0480
2700.00,-0.0480
2699.00,-0.0480
2698.00,-0.0480
2697.00,-0.0480
2696.00,-0.0480
2695.00,-0.0480
2694.00,-0.0480
2693.00,-0.0480
2692.00,-0.0480
2691.00,-0.0480
2690.00,-0.0480
2689.00,-0.0481
2688.00,-0.0481
2687.00,-0.0481
2686.00,-0.0481
2685.00,-0.0481
2684.00,-0.0481
2683.00,-0.0481
2682.00,-0.0481
2681.00,-0.0482
2680.00,-0.0482
2679.00,-0.0482
2678.00,-0.0482
2677.00,-0.0482
2676.00,-0.0482
2675.00,-0.0482
2674.00,-0.0482
2673.00,-0.0482
2672.00,-0.0482
2671.00,-0.0482
2670.00,-0.0482
2669.00,-0.0482
2668.00,-0.0482
2667.00,-0.0482
2666.00,-0.0482
2665.00,-0.0481
2664.00,-0.0481
2663.00,-0.0481
2662.00,-0.0481
2661.00,-0.0481
2660.00,-0.0480
2659.00,-0.0480
2658.00,-0.0480
2657.00,-0.0480
2656.00,-0.0480
2655.00,-0.0480
2654.00,-0.0479
2653.00,-0.0479
2652.00,-0.0479
2651.00,-0.0479
2650.00,-0.0479
2649.00,-0.0479
2648.00,-0.0479
2647.00,-0.0479
2646.00,-0.0479
2645.00,-0.0479
2644.00,-0.0479
2643.00,-0.0479
2642.00,-0.0479
2641.00,-0.0479
2640.00,-0.0479
2639.00,-0.0479
2638.00,-0.0479
2637.00,-0.0479
2636.00,-0.0479
2635.00,-0.0479
2634.00,-0.0479
2633.00,-0.0479
2632.00,-0.0479
2631.00,-0.0479
2630.00,-0.0479
2629.00,-0.0479
2628.00,-0.0479
2627.00,-0.0479
2626.00,-0.0480
2625.00,-0.0480
2624.00,-0.0480
2623.00,-0.0480
2622.00,-0.0480
2621.00,-0.0480
2620.00,-0.0480
2619.00,-0.0480
2618.00,-0.0480
2617.00,-0.0480
2616.00,-0.0480
2615.00,-0.0480
2614.00,-0.0480
2613.00,-0.0480
2612.00,-0.0480
2611.00,-0.0480
2610.00,-0.0480
2609.00,-0.0480
2608.00,-0.0479
2607.00,-0.0479
2606.00,-0.0479
2605.00,-0.0479
2604.00,-0.0479
2603.00,-0.0479
2602.00,-0.0479
2601.00,-0.0479
2600.00,-0.0479
2599.00,-0.0479
2598.00,-0.0478
2597.00,-0.0478
2596.00,-0.0478
2595.00,-0.0478
2594.00,-0.0478
2593.00,-0.0478
2592.00,-0.0478
2591.00,-0.0479
2590.00,-0.0479
2589.00,-0.0479
2588.00,-0.0479
2587.00,-0.0479
2586.00,-0.0479
2585.00,-0.0479
2584.00,-0.0479
2583.00,-0.0479
2582.00,-0.0479
2581.00,-0.0479
2580.00,-0.0480
2579.00,-0.0480
2578.00,-0.0480
2577.00,-0.0480
2576.00,-0.0480
2575.00,-0.0480
2574.00,-0.0480
2573.00,-0.0480
2572.00,-0.0480
2571.00,-0.0480
2570.00,-0.0480
2569.00,-0.0480
2568.00,-0.0480
2567.00,-0.0480
2566.00,-0.0480
2565.00,-0.0480
2564.00,-0.0480
2563.00,-0.0480
2562.00,-0.0480
2561.00,-0.0480
2560.00,-0.0479
2559.00,-0.0479
2558.00,-0.0479
2557.00,-0.0479
2556.00,-0.0479
2555.00,-0.0479
2554.00,-0.0479
2553.00,-0.0478
2552.00,-0.0478
2551.00,-0.0478
2550.00,-0.0478
2549.00,-0.0477
2548.00,-0.0477
2547.00,-0.0477
2546.00,-0.0477
2545.00,-0.0477
2544.00,-0.0477
2543.00,-0.0476
2542.00,-0.0476
2541.00,-0.0476
2540.00,-0.0476
2539.00,-0.0476
2538.00,-0.0476
2537.00,-0.0476
2536.00,-0.0476
2535.00,-0.0476
2534.00,-0.0476
2533.00,-0.0476
2532.00,-0.0476
2531.00,-0.0476
2530.00,-0.0477
2529.00,-0.0477
2528.00,-0.0477
2527.00,-0.0477
2526.00,-0.0477
2525.00,-0.0477
2524.00,-0.0477
2523.00,-0.0477
2522.00,-0.0477
2521.00,-0.0477
2520.00,-0.0477
2519.00,-0.0477
2518.00,-0.0477
2517.00,-0.0477
2516.00,-0.0477
2515.00,-0.0477
2514.00,-0.0477
2513.00,-0.0477
2512.00,-0.0477
2511.00,-0.0477
2510.00,-0.0477
2509.00,-0.0476
2508.00,-0.0476
2507.00,-0.0476
2506.00,-0.0476
2505.00,-0.0476
2504.00,-0.0476
2503.00,-0.0475
2502.00,-0.0475
2501.00,-0.0475
2500.00,-0.0475
2499.00,-0.0475
2498.00,-0.0475
2497.00,-0.0474
2496.00,-0.0474
2495.00,-0.0474
2494.00,-0.0474
2493.00,-0.0474
2492.00,-0.0474
2491.00,-0.0474
2490.00,-0.0474
2489.00,-0.0474
2488.00,-0.0474
2487.00,-0.0474
2486.00,-0.0474
2485.00,-0.0474
2484.00,-0.0474
2483.00,-0.0474
2482.00,-0.0474
2481.00,-0.0474
2480.00,-0.0474
2479.00,-0.0474
2478.00,-0.0474
2477.00,-0.0474
2476.00,-0.0474
2475.00,-0.0474
2474.00,-0.0474
2473.00,-0.0474
2472.00,-0.0474
2471.00,-0.0474
2470.00,-0.0474
2469.00,-0.0474
2468.00,-0.0475
2467.00,-0.0475
2466.00,-0.0475
2465.00,-0.0475
2464.00,-0.0475
2463.00,-0.0475
2462.00,-0.0475
2461.00,-0.0474
2460.00,-0.0474
2459.00,-0.0474
2458.00,-0.0474
2457.00,-0.0474
2456.00,-0.0474
2455.00,-0.0474
2454.00,-0.0474
2453.00,-0.0474
2452.00,-0.0473
2451.00,-0.0473
2450.00,-0.0473
2449.00,-0.0473
2448.00,-0.0473
2447.00,-0.0473
2446.00,-0.0473
2445.00,-0.0473
2444.00,-0.0473
2443.00,-0.0473
2442.00,-0.0473
2441.00,-0.0473
2440.00,-0.0473
2439.00,-0.0473
2438.00,-0.0473
2437.00,-0.0473
2436.00,-0.0473
2435.00,-0.0473
2434.00,-0.0473
2433.00,-0.0473
2432.00,-0.0473
2431.00,-0.0473
2430.00,-0.0474
2429.00,-0.0474
2428.00,-0.0474
2427.00,-0.0474
2426.00,-0.0474
2425.00,-0.0475
2424.00,-0.0475
2423.00,-0.0475
2422.00,-0.0475
2421.00,-0.0476
2420.00,-0.0476
2419.00,-0.0476
2418.00,-0.0476
2417.00,-0.0477
2416.00,-0.0477
2415.00,-0.0477
2414.00,-0.0477
2413.00,-0.0477
2412.00,-0.0477
2411.00,-0.0477
2410.00,-0.0477
2409.00,-0.0477
2408.00,-0.0477
2407.00,-0.0477
2406.00,-0.0477
2405.00,-0.0477
2404.00,-0.0477
2403.00,-0.0477
2402.00,-0.0476
2401.00,-0.0476
2400.00,-0.0476
2399.00,-0.0476
2398.00,-0.0476
2397.00,-0.0475
2396.00,-0.0475
2395.00,-0.0475
2394.00,-0.0475
2393.00,-0.0475
2392.00,-0.0475
2391.00,-0.0475
2390.00,-0.0475
2389.00,-0.0475
2388.00,-0.0475
2387.00,-0.0475
2386.00,-0.0475
2385.00,-0.0475
2384.00,-0.0475
2383.00,-0.0475
2382.00,-0.0475
2381.00,-0.0475
2380.00,-0.0475
2379.00,-0.0475
2378.00,-0.0475
2377.00,-0.0475
2376.00,-0.0475
2375.00,-0.0475
2374.00,-0.0475
2373.00,-0.0475
2372.00,-0.0475
2371.00,-0.0474
2370.00,-0.0474
2369.00,-0.0474
2368.00,-0.0474
2367.00,-0.0474
2366.00,-0.0474
2365.00,-0.0474
2364.00,-0.0474
2363.00,-0.0474
2362.00,-0.0474
2361.00,-0.0475
2360.00,-0.0475
2359.00,-0.0475
2358.00,-0.0475
2357.00,-0.0475
2356.00,-0.0474
2355.00,-0.0474
2354.00,-0.0473
2353.00,-0.0473
2352.00,-0.0474
2351.00,-0.0474
2350.00,-0.0474
2349.00,-0.0474
2348.00,-0.0474
2347.00,-0.0474
2346.00,-0.0474
2345.00,-0.0475
2344.00,-0.0475
2343.00,-0.0475
2342.00,-0.0475
2341.00,-0.0474
2340.00,-0.0474
2339.00,-0.0474
2338.00,-0.0474
2337.00,-0.0474
2336.00,-0.0474
2335.00,-0.0474
2334.00,-0.0474
2333.00,-0.0474
2332.00,-0.0474
2331.00,-0.0474
2330.00,-0.0474
2329.00,-0.0474
2328.00,-0.0474
2327.00,-0.0474
2326.00,-0.0474
2325.00,-0.0474
2324.00,-0.0474
2323.00,-0.0474
2322.00,-0.0474
2321.00,-0.0473
2320.00,-0.0473
2319.00,-0.0473
2318.00,-0.0473
2317.00,-0.0473
2316.00,-0.0472
2315.00,-0.0472
2314.00,-0.0473
2313.00,-0.0473
2312.00,-0.0473
2311.00,-0.0473
2310.00,-0.0473
2309.00,-0.0474
2308.00,-0.0474
2307.00,-0.0474
2306.00,-0.0473
2305.00,-0.0473
2304.00,-0.0473
2303.00,-0.0474
2302.00,-0.0474
2301.00,-0.0474
2300.00,-0.0473
2299.00,-0.0473
2298.00,-0.0473
2297.00,-0.0473
2296.00,-0.0473
2295.00,-0.0473
2294.00,-0.0473
2293.00,-0.0473
2292.00,-0.0473
2291.00,-0.0473
2290.00,-0.0472
2289.00,-0.0472
2288.00,-0.0472
2287.00,-0.0472
2286.00,-0.0472
2285.00,-0.0472
2284.00,-0.0472
2283.00,-0.0472
2282.00,-0.0471
2281.00,-0.0471
2280.00,-0.0471
2279.00,-0.0471
2278.00,-0.0471
2277.00,-0.0471
2276.00,-0.0471
2275.00,-0.0471
2274.00,-0.0471
2273.00,-0.0471
2272.00,-0.0471
2271.00,-0.0471
2270.00,-0.0471
2269.00,-0.0471
2268.00,-0.0471
2267.00,-0.0471
2266.00,-0.0471
2265.00,-0.0471
2264.00,-0.0471
2263.00,-0.0472
2262.00,-0.0472
2261.00,-0.0472
2260.00,-0.0472
2259.00,-0.0472
2258.00,-0.0472
2257.00,-0.0472
2256.00,-0.0472
2255.00,-0.0472
2254.00,-0.0472
2253.00,-0.0473
2252.00,-0.0473
2251.00,-0.0473
2250.00,-0.0473
2249.00,-0.0472
2248.00,-0.0472
2247.00,-0.0472
2246.00,-0.0472
2245.00,-0.0472
2244.00,-0.0472
2243.00,-0.0472
2242.00,-0.0472
2241.00,-0.0472
2240.00,-0.0472
2239.00,-0.0471
2238.00,-0.0471
2237.00,-0.0471
2236.00,-0.0471
2235.00,-0.0471
2234.00,-0.0470
2233.00,-0.0470
2232.00,-0.0470
2231.00,-0.0470
2230.00,-0.0470
2229.00,-0.0470
2228.00,-0.0469
2227.00,-0.0469
2226.00,-0.0469
2225.00,-0.0469
2224.00,-0.0469
2223.00,-0.0469
2222.00,-0.0469
2221.00,-0.0469
2220.00,-0.0469
2219.00,-0.0469
2218.00,-0.0469
2217.00,-0.0469
2216.00,-0.0469
2215.00,-0.0469
2214.00,-0.0469
2213.00,-0.0469
2212.00,-0.0469
2211.00,-0.0469
2210.00,-0.0469
2209.00,-0.0470
2208.00,-0.0470
2207.00,-0.0470
2206.00,-0.0470
2205.00,-0.0470
2204.00,-0.0470
2203.00,-0.0470
2202.00,-0.0470
2201.00,-0.0470
2200.00,-0.0470
2199.00,-0.0470
2198.00,-0.0470
2197.00,-0.0470
2196.00,-0.0470
2195.00,-0.0469
2194.00,-0.0469
2193.00,-0.0469
2192.00,-0.0469
2191.00,-0.0469
2190.00,-0.0468
2189.00,-0.0468
2188.00,-0.0468
2187.00,-0.0468
2186.00,-0.0468
2185.00,-0.0467
2184.00,-0.0467
2183.00,-0.0467
2182.00,-0.0467
2181.00,-0.0467
2180.00,-0.0466
2179.00,-0.0466
2178.00,-0.0466
2177.00,-0.0466
2176.00,-0.0466
2175.00,-0.0466
2174.00,-0.0466
2173.00,-0.0466
2172.00,-0.0466
2171.00,-0.0466
2170.00,-0.0466
2169.00,-0.0466
2168.00,-0.0466
2167.00,-0.0466
2166.00,-0.0466
2165.00,-0.0467
2164.00,-0.0467
2163.00,-0.0467
2162.00,-0.0467
2161.00,-0.0467
2160.00,-0.0467
2159.00,-0.0468
2158.00,-0.0468
2157.00,-0.0468
2156.00,-0.0468
2155.00,-0.0468
2154.00,-0.0468
2153.00,-0.0469
2152.00,-0.0469
2151.00,-0.0469
2150.00,-0.0469
2149.00,-0.0469
2148.00,-0.0469
2147.00,-0.0469
2146.00,-0.0469
2145.00,-0.0469
2144.00,-0.0469
2143.00,-0.0469
2142.00,-0.0469
2141.00,-0.0469
2140.00,-0.0468
2139.00,-0.0468
2138.00,-0.0468
2137.00,-0.0468
2136.00,-0.0468
2135.00,-0.0468
2134.00,-0.0467
2133.00,-0.0467
2132.00,-0.0467
2131.00,-0.0467
2130.00,-0.0467
2129.00,-0.0467
2128.00,-0.0466
2127.00,-0.0466
2126.00,-0.0466
2125.00,-0.0466
2124.00,-0.0466
2123.00,-0.0466
2122.00,-0.0466
2121.00,-0.0466
2120.00,-0.0466
2119.00,-0.0466
2118.00,-0.0466
2117.00,-0.0466
2116.00,-0.0466
2115.00,-0.0466
2114.00,-0.0466
2113.00,-0.0466
2112.00,-0.0466
2111.00,-0.0466
2110.00,-0.0466
2109.00,-0.0466
2108.00,-0.0467
2107.00,-0.0467
2106.00,-0.0467
2105.00,-0.0467
2104.00,-0.0467
2103.00,-0.0467
2102.00,-0.0467
2101.00,-0.0467
2100.00,-0.0467
2099.00,-0.0467
2098.00,-0.0467
2097.00,-0.0467
2096.00,-0.0467
2095.00,-0.0467
2094.00,-0.0467
2093.00,-0.0467
2092.00,-0.0468
2091.00,-0.0468
2090.00,-0.0468
2089.00,-0.0468
2088.00,-0.0468
2087.00,-0.0468
2086.00,-0.0468
2085.00,-0.0467
2084.00,-0.0467
2083.00,-0.0467
2082.00,-0.0467
2081.00,-0.0467
2080.00,-0.0467
2079.00,-0.0467
2078.00,-0.0467
2077.00,-0.0467
2076.00,-0.0467
2075.00,-0.0467
2074.00,-0.0467
2073.00,-0.0466
2072.00,-0.0466
2071.00,-0.0466
2070.00,-0.0466
2069.00,-0.0466
2068.00,-0.0466
2067.00,-0.0466
2066.00,-0.0466
2065.00,-0.0466
2064.00,-0.0466
2063.00,-0.0466
2062.00,-0.0465
2061.00,-0.0465
2060.00,-0.0465
2059.00,-0.0466
2058.00,-0.0466
2057.00,-0.0466
2056.00,-0.0466
2055.00,-0.0466
2054.00,-0.0466
2053.00,-0.0466
2052.00,-0.0466
2051.00,-0.0466
2050.00,-0.0466
2049.00,-0.0466
2048.00,-0.0467
2047.00,-0.0467
2046.00,-0.0467
2045.00,-0.0467
2044.00,-0.0467
2043.00,-0.0467
2042.00,-0.0467
2041.00,-0.0468
2040.00,-0.0468
2039.00,-0.0468
2038.00,-0.0468
2037.00,-0.0468
2036.00,-0.0468
2035.00,-0.0468
2034.00,-0.0468
2033.00,-0.0468
2032.00,-0.0468
2031.00,-0.0468
2030.00,-0.0468
2029.00,-0.0468
2028.00,-0.0468
2027.00,-0.0467
2026.00,-0.0467
2025.00,-0.0467
2024.00,-0.0467
2023.00,-0.0467
2022.00,-0.0467
2021.00,-0.0466
2020.00,-0.0466
2019.00,-0.0466
2018.00,-0.0466
2017.00,-0.0466
2016.00,-0.0466
2015.00,-0.0465
2014.00,-0.0465
2013.00,-0.0465
2012.00,-0.0465
2011.00,-0.0465
2010.00,-0.0465
2009.00,-0.0465
2008.00,-0.0465
2007.00,-0.0465
2006.00,-0.0465
2005.00,-0.0465
2004.00,-0.0465
2003.00,-0.0466
2002.00,-0.0466
2001.00,-0.0466
2000.00,-0.0466
1999.00,-0.0467
1998.00,-0.0467
1997.00,-0.0467
1996.00,-0.0467
1995.00,-0.0468
1994.00,-0.0468
1993.00,-0.0469
1992.00,-0.0469
1991.00,-0.0469
1990.00,-0.0469
1989.00,-0.0469
1988.00,-0.0470
1987.00,-0.0470
1986.00,-0.0470
1985.00,-0.0471
1984.00,-0.0471
1983.00,-0.0471
1982.00,-0.0471
1981.00,-0.0471
1980.00,-0.0471
1979.00,-0.0471
1978.00,-0.0471
1977.00,-0.0471
1976.00,-0.0471
1975.00,-0.0471
1974.00,-0.0471
1973.00,-0.0471
1972.00,-0.0470
1971.00,-0.0470
1970.00,-0.0470
1969.00,-0.0470
1968.00,-0.0470
1967.00,-0.0470
1966.00,-0.0469
1965.00,-0.0469
1964.00,-0.0469
1963.00,-0.0469
1962.00,-0.0469
1961.00,-0.0469
1960.00,-0.0469
1959.00,-0.0470
1958.00,-0.0470
1957.00,-0.0470
1956.00,-0.0470
1955.00,-0.0470
1954.00,-0.0471
1953.00,-0.0471
1952.00,-0.0471
1951.00,-0.0472
1950.00,-0.0472
1949.00,-0.0472
1948.00,-0.0473
1947.00,-0.0473
1946.00,-0.0473
1945.00,-0.0473
1944.00,-0.0473
1943.00,-0.0473
1942.00,-0.0474
1941.00,-0.0473
1940.00,-0.0473
1939.00,-0.0472
1938.00,-0.0472
1937.00,-0.0472
1936.00,-0.0472
1935.00,-0.0472
1934.00,-0.0472
1933.00,-0.0471
1932.00,-0.0471
1931.00,-0.0471
1930.00,-0.0470
1929.00,-0.0470
1928.00,-0.0470
1927.00,-0.0470
1926.00,-0.0470
1925.00,-0.0470
1924.00,-0.0470
1923.00,-0.0470
1922.00,-0.0470
1921.00,-0.0469
1920.00,-0.0468
1919.00,-0.0468
1918.00,-0.0468
1917.00,-0.0468
1916.00,-0.0468
1915.00,-0.0468
1914.00,-0.0467
1913.00,-0.0468
1912.00,-0.0468
1911.00,-0.0468
1910.00,-0.0468
1909.00,-0.0468
1908.00,-0.0468
1907.00,-0.0467
1906.00,-0.0467
1905.00,-0.0467
1904.00,-0.0467
1903.00,-0.0467
1902.00,-0.0467
1901.00,-0.0467
1900.00,-0.0467
1899.00,-0.0467
1898.00,-0.0467
1897.00,-0.0467
1896.00,-0.0468
1895.00,-0.0468
1894.00,-0.0468
1893.00,-0.0468
1892.00,-0.0468
1891.00,-0.0468
1890.00,-0.0469
1889.00,-0.0469
1888.00,-0.0470
1887.00,-0.0469
1886.00,-0.0469
1885.00,-0.0470
1884.00,-0.0470
1883.00,-0.0470
1882.00,-0.0470
1881.00,-0.0471
1880.00,-0.0471
1879.00,-0.0471
1878.00,-0.0471
1877.00,-0.0471
1876.00,-0.0472
1875.00,-0.0471
1874.00,-0.0471
1873.00,-0.0471
1872.00,-0.0471
1871.00,-0.0471
1870.00,-0.0471
1869.00,-0.0471
1868.00,-0.0471
1867.00,-0.0471
1866.00,-0.0470
1865.00,-0.0470
1864.00,-0.0470
1863.00,-0.0470
1862.00,-0.0470
1861.00,-0.0470
1860.00,-0.0470
1859.00,-0.0470
1858.00,-0.0470
1857.00,-0.0470
1856.00,-0.0470
1855.00,-0.0471
1854.00,-0.0471
1853.00,-0.0471
1852.00,-0.0471
1851.00,-0.0471
1850.00,-0.0471
1849.00,-0.0472
1848.00,-0.0472
1847.00,-0.0472
1846.00,-0.0472
1845.00,-0.0472
1844.00,-0.0472
1843.00,-0.0473
1842.00,-0.0472
1841.00,-0.0472
1840.00,-0.0472
1839.00,-0.0473
1838.00,-0.0474
1837.00,-0.0474
1836.00,-0.0474
1835.00,-0.0474
1834.00,-0.0474
1833.00,-0.0474
1832.00,-0.0474
1831.00,-0.0474
1830.00,-0.0475
1829.00,-0.0475
1828.00,-0.0475
1827.00,-0.0474
1826.00,-0.0473
1825.00,-0.0474
1824.00,-0.0475
1823.00,-0.0475
1822.00,-0.0474
1821.00,-0.0474
1820.00,-0.0475
1819.00,-0.0475
1818.00,-0.0475
1817.00,-0.0475
1816.00,-0.0475
1815.00,-0.0475
1814.00,-0.0475
1813.00,-0.0475
1812.00,-0.0475
1811.00,-0.0475
1810.00,-0.0475
1809.00,-0.0475
1808.00,-0.0475
1807.00,-0.0475
1806.00,-0.0475
1805.00,-0.0475
1804.00,-0.0475
1803.00,-0.0475
1802.00,-0.0475
1801.00,-0.0474
1800.00,-0.0474
1799.00,-0.0474
1798.00,-0.0474
1797.00,-0.0475
1796.00,-0.0475
1795.00,-0.0475
1794.00,-0.0475
1793.00,-0.0475
1792.00,-0.0476
1791.00,-0.0476
1790.00,-0.0476
1789.00,-0.0476
1788.00,-0.0476
1787.00,-0.0476
1786.00,-0.0476
1785.00,-0.0477
1784.00,-0.0477
1783.00,-0.0478
1782.00,-0.0478
1781.00,-0.0478
1780.00,-0.0478
1779.00,-0.0478
1778.00,-0.0478
1777.00,-0.0478
1776.00,-0.0478
1775.00,-0.0478
1774.00,-0.0478
1773.00,-0.0477
1772.00,-0.0477
1771.00,-0.0477
1770.00,-0.0477
1769.00,-0.0476
1768.00,-0.0476
1767.00,-0.0477
1766.00,-0.0477
1765.00,-0.0477
1764.00,-0.0477
1763.00,-0.0478
1762.00,-0.0478
1761.00,-0.0478
1760.00,-0.0477
1759.00,-0.0476
1758.00,-0.0476
1757.00,-0.0476
1756.00,-0.0476
1755.00,-0.0475
1754.00,-0.0474
1753.00,-0.0472
1752.00,-0.0471
1751.00,-0.0471
1750.00,-0.0471
1749.00,-0.0472
1748.00,-0.0472
1747.00,-0.0473
1746.00,-0.0473
1745.00,-0.0474
1744.00,-0.0474
1743.00,-0.0475
1742.00,-0.0475
1741.00,-0.0475
1740.00,-0.0475
1739.00,-0.0475
1738.00,-0.0476
1737.00,-0.0476
1736.00,-0.0474
1735.00,-0.0473
1734.00,-0.0473
1733.00,-0.0473
1732.00,-0.0473
1731.00,-0.0473
1730.00,-0.0475
1729.00,-0.0476
1728.00,-0.0477
1727.00,-0.0477
1726.00,-0.0477
1725.00,-0.0478
1724.00,-0.0478
1723.00,-0.0478
1722.00,-0.0478
1721.00,-0.0478
1720.00,-0.0477
1719.00,-0.0476
1718.00,-0.0475
1717.00,-0.0475
1716.00,-0.0474
1715.00,-0.0474
1714.00,-0.0475
1713.00,-0.0475
1712.00,-0.0476
1711.00,-0.0476
1710.00,-0.0476
1709.00,-0.0477
1708.00,-0.0477
1707.00,-0.0477
1706.00,-0.0477
1705.00,-0.0477
1704.00,-0.0478
1703.00,-0.0478
1702.00,-0.0476
1701.00,-0.0475
1700.00,-0.0475
1699.00,-0.0475
1698.00,-0.0472
1697.00,-0.0471
1696.00,-0.0472
1695.00,-0.0473
1694.00,-0.0474
1693.00,-0.0473
1692.00,-0.0473
1691.00,-0.0473
1690.00,-0.0474
1689.00,-0.0475
1688.00,-0.0475
1687.00,-0.0475
1686.00,-0.0473
1685.00,-0.0473
1684.00,-0.0473
1683.00,-0.0474
1682.00,-0.0474
1681.00,-0.0474
1680.00,-0.0474
1679.00,-0.0475
1678.00,-0.0476
1677.00,-0.0476
1676.00,-0.0476
1675.00,-0.0476
1674.00,-0.0476
1673.00,-0.0475
1672.00,-0.0474
1671.00,-0.0474
1670.00,-0.0475
1669.00,-0.0476
1668.00,-0.0476
1667.00,-0.0476
1666.00,-0.0476
1665.00,-0.0476
1664.00,-0.0476
1663.00,-0.0477
1662.00,-0.0477
1661.00,-0.0477
1660.00,-0.0476
1659.00,-0.0475
1658.00,-0.0476
1657.00,-0.0477
1656.00,-0.0478
1655.00,-0.0478
1654.00,-0.0478
1653.00,-0.0478
1652.00,-0.0477
1651.00,-0.0474
1650.00,-0.0473
1649.00,-0.0472
1648.00,-0.0472
1647.00,-0.0473
1646.00,-0.0473
1645.00,-0.0473
1644.00,-0.0473
1643.00,-0.0473
1642.00,-0.0473
1641.00,-0.0473
1640.00,-0.0474
1639.00,-0.0474
1638.00,-0.0474
1637.00,-0.0474
1636.00,-0.0474
1635.00,-0.0474
1634.00,-0.0474
1633.00,-0.0474
1632.00,-0.0474
1631.00,-0.0474
1630.00,-0.0474
1629.00,-0.0475
1628.00,-0.0476
1627.00,-0.0476
1626.00,-0.0476
1625.00,-0.0476
1624.00,-0.0476
1623.00,-0.0476
1622.00,-0.0476
1621.00,-0.0477
1620.00,-0.0477
1619.00,-0.0477
1618.00,-0.0477
1617.00,-0.0477
1616.00,-0.0478
1615.00,-0.0477
1614.00,-0.0477
1613.00,-0.0477
1612.00,-0.0477
1611.00,-0.0477
1610.00,-0.0477
1609.00,-0.0477
1608.00,-0.0478
1607.00,-0.0478
1606.00,-0.0478
1605.00,-0.0478
1604.00,-0.0478
1603.00,-0.0478
1602.00,-0.0478
1601.00,-0.0478
1600.00,-0.0478
1599.00,-0.0477
1598.00,-0.0477
1597.00,-0.0478
1596.00,-0.0477
1595.00,-0.0477
1594.00,-0.0477
1593.00,-0.0477
1592.00,-0.0477
1591.00,-0.0477
1590.00,-0.0477
1589.00,-0.0477
1588.00,-0.0477
1587.00,-0.0477
1586.00,-0.0477
1585.00,-0.0477
1584.00,-0.0477
1583.00,-0.0477
1582.00,-0.0477
1581.00,-0.0477
1580.00,-0.0478
1579.00,-0.0478
1578.00,-0.0478
1577.00,-0.0478
1576.00,-0.0478
1575.00,-0.0477
1574.00,-0.0477
1573.00,-0.0477
1572.00,-0.0477
1571.00,-0.0478
1570.00,-0.0478
1569.00,-0.0478
1568.00,-0.0477
1567.00,-0.0476
1566.00,-0.0476
1565.00,-0.0476
1564.00,-0.0478
1563.00,-0.0479
1562.00,-0.0479
1561.00,-0.0479
1560.00,-0.0476
1559.00,-0.0475
1558.00,-0.0474
1557.00,-0.0474
1556.00,-0.0473
1555.00,-0.0473
1554.00,-0.0474
1553.00,-0.0474
1552.00,-0.0474
1551.00,-0.0474
1550.00,-0.0474
1549.00,-0.0475
1548.00,-0.0474
1547.00,-0.0474
1546.00,-0.0473
1545.00,-0.0474
1544.00,-0.0475
1543.00,-0.0475
1542.00,-0.0474
1541.00,-0.0473
1540.00,-0.0473
1539.00,-0.0473
1538.00,-0.0473
1537.00,-0.0473
1536.00,-0.0473
1535.00,-0.0473
1534.00,-0.0473
1533.00,-0.0474
1532.00,-0.0474
1531.00,-0.0474
1530.00,-0.0473
1529.00,-0.0473
1528.00,-0.0474
1527.00,-0.0474
1526.00,-0.0473
1525.00,-0.0473
1524.00,-0.0473
1523.00,-0.0473
1522.00,-0.0473
1521.00,-0.0474
1520.00,-0.0474
1519.00,-0.0473
1518.00,-0.0472
1517.00,-0.0473
1516.00,-0.0474
1515.00,-0.0474
1514.00,-0.0473
1513.00,-0.0473
1512.00,-0.0474
1511.00,-0.0475
1510.00,-0.0475
1509.00,-0.0474
1508.00,-0.0473
1507.00,-0.0473
1506.00,-0.0473
1505.00,-0.0473
1504.00,-0.0474
1503.00,-0.0474
1502.00,-0.0475
1501.00,-0.0475
1500.00,-0.0476
1499.00,-0.0476
1498.00,-0.0475
1497.00,-0.0474
1496.00,-0.0474
1495.00,-0.0474
1494.00,-0.0473
1493.00,-0.0473
1492.00,-0.0473
1491.00,-0.0473
1490.00,-0.0473
1489.00,-0.0473
1488.00,-0.0474
1487.00,-0.0474
1486.00,-0.0475
1485.00,-0.0475
1484.00,-0.0476
1483.00,-0.0476
1482.00,-0.0476
1481.00,-0.0477
1480.00,-0.0477
1479.00,-0.0476
1478.00,-0.0476
1477.00,-0.0475
1476.00,-0.0476
1475.00,-0.0475
1474.00,-0.0474
1473.00,-0.0473
1472.00,-0.0474
1471.00,-0.0475
1470.00,-0.0475
1469.00,-0.0476
1468.00,-0.0477
1467.00,-0.0478
1466.00,-0.0478
1465.00,-0.0477
1464.00,-0.0477
1463.00,-0.0477
1462.00,-0.0477
1461.00,-0.0477
1460.00,-0.0478
1459.00,-0.0478
1458.00,-0.0478
1457.00,-0.0477
1456.00,-0.0476
1455.00,-0.0475
1454.00,-0.0475
1453.00,-0.0476
1452.00,-0.0476
1451.00,-0.0477
1450.00,-0.0477
1449.00,-0.0477
1448.00,-0.0478
1447.00,-0.0478
1446.00,-0.0478
1445.00,-0.0478
1444.00,-0.0478
1443.00,-0.0478
1442.00,-0.0478
1441.00,-0.0478
1440.00,-0.0478
1439.00,-0.0478
1438.00,-0.0478
1437.00,-0.0477
1436.00,-0.0476
1435.00,-0.0476
1434.00,-0.0476
1433.00,-0.0475
1432.00,-0.0476
1431.00,-0.0476
1430.00,-0.0476
1429.00,-0.0476
1428.00,-0.0476
1427.00,-0.0476
1426.00,-0.0476
1425.00,-0.0476
1424.00,-0.0476
1423.00,-0.0476
1422.00,-0.0477
1421.00,-0.0477
1420.00,-0.0477
1419.00,-0.0477
1418.00,-0.0477
1417.00,-0.0476
1416.00,-0.0476
1415.00,-0.0476
1414.00,-0.0478
1413.00,-0.0478
1412.00,-0.0478
1411.00,-0.0479
1410.00,-0.0479
1409.00,-0.0479
1408.00,-0.0479
1407.00,-0.0478
1406.00,-0.0478
1405.00,-0.0478
1404.00,-0.0478
1403.00,-0.0478
1402.00,-0.0478
1401.00,-0.0477
1400.00,-0.0477
1399.00,-0.0477
1398.00,-0.0477
1397.00,-0.0477
1396.00,-0.0477
1395.00,-0.0478
1394.00,-0.0478
1393.00,-0.0478
1392.00,-0.0478
1391.00,-0.0478
1390.00,-0.0479
1389.00,-0.0479
1388.00,-0.0479
1387.00,-0.0479
1386.00,-0.0479
1385.00,-0.0478
1384.00,-0.0478
1383.00,-0.0478
1382.00,-0.0478
1381.00,-0.0478
1380.00,-0.0478
1379.00,-0.0478
1378.00,-0.0478
1377.00,-0.0477
1376.00,-0.0477
1375.00,-0.0477
1374.00,-0.0478
1373.00,-0.0478
1372.00,-0.0478
1371.00,-0.0477
1370.00,-0.0477
1369.00,-0.0478
1368.00,-0.0478
1367.00,-0.0478
1366.00,-0.0478
1365.00,-0.0478
1364.00,-0.0478
1363.00,-0.0479
1362.00,-0.0479
1361.00,-0.0479
1360.00,-0.0478
1359.00,-0.0478
1358.00,-0.0478
1357.00,-0.0478
1356.00,-0.0479
1355.00,-0.0479
1354.00,-0.0479
1353.00,-0.0479
1352.00,-0.0479
1351.00,-0.0479
1350.00,-0.0480
1349.00,-0.0480
1348.00,-0.0480
1347.00,-0.0480
1346.00,-0.0479
1345.00,-0.0480
1344.00,-0.0479
1343.00,-0.0479
1342.00,-0.0479
1341.00,-0.0479
1340.00,-0.0479
1339.00,-0.0479
1338.00,-0.0479
1337.00,-0.0479
1336.00,-0.0479
1335.00,-0.0479
1334.00,-0.0479
1333.00,-0.0479
1332.00,-0.0479
1331.00,-0.0479
1330.00,-0.0479
1329.00,-0.0479
1328.00,-0.0478
1327.00,-0.0478
1326.00,-0.0478
1325.00,-0.0478
1324.00,-0.0478
1323.00,-0.0478
1322.00,-0.0478
1321.00,-0.0478
1320.00,-0.0478
1319.00,-0.0478
1318.00,-0.0478
1317.00,-0.0478
1316.00,-0.0478
1315.00,-0.0478
1314.00,-0.0478
1313.00,-0.0478
1312.00,-0.0478
1311.00,-0.0478
1310.00,-0.0478
1309.00,-0.0479
1308.00,-0.0479
1307.00,-0.0479
1306.00,-0.0479
1305.00,-0.0479
1304.00,-0.0479
1303.00,-0.0479
1302.00,-0.0479
1301.00,-0.0479
1300.00,-0.0479
1299.00,-0.0479
1298.00,-0.0479
1297.00,-0.0479
1296.00,-0.0479
1295.00,-0.0479
1294.00,-0.0479
1293.00,-0.0479
1292.00,-0.0479
1291.00,-0.0479
1290.00,-0.0479
1289.00,-0.0479
1288.00,-0.0479
1287.00,-0.0478
1286.00,-0.0478
1285.00,-0.0478
1284.00,-0.0478
1283.00,-0.0478
1282.00,-0.0478
1281.00,-0.0478
1280.00,-0.0477
1279.00,-0.0477
1278.00,-0.0477
1277.00,-0.0477
1276.00,-0.0477
1275.00,-0.0477
1274.00,-0.0476
1273.00,-0.0476
1272.00,-0.0476
1271.00,-0.0476
1270.00,-0.0476
1269.00,-0.0476
1268.00,-0.0476
1267.00,-0.0476
1266.00,-0.0476
1265.00,-0.0476
1264.00,-0.0476
1263.00,-0.0476
1262.00,-0.0476
1261.00,-0.0476
1260.00,-0.0476
1259.00,-0.0476
1258.00,-0.0476
1257.00,-0.0477
1256.00,-0.0477
1255.00,-0.0477
1254.00,-0.0477
1253.00,-0.0478
1252.00,-0.0478
1251.00,-0.0478
1250.00,-0.0478
1249.00,-0.0478
1248.00,-0.0478
1247.00,-0.0478
1246.00,-0.0478
1245.00,-0.0478
1244.00,-0.0478
1243.00,-0.0478
1242.00,-0.0478
1241.00,-0.0478
1240.00,-0.0478
1239.00,-0.0478
1238.00,-0.0478
1237.00,-0.0478
1236.00,-0.0478
1235.00,-0.0478
1234.00,-0.0478
1233.00,-0.0477
1232.00,-0.0477
1231.00,-0.0477
1230.00,-0.0477
1229.00,-0.0477
1228.00,-0.0477
1227.00,-0.0476
1226.00,-0.0476
1225.00,-0.0476
1224.00,-0.0476
1223.00,-0.0476
1222.00,-0.0476
1221.00,-0.0476
1220.00,-0.0475
1219.00,-0.0475
1218.00,-0.0475
1217.00,-0.0475
1216.00,-0.0475
1215.00,-0.0474
1214.00,-0.0474
1213.00,-0.0474
1212.00,-0.0474
1211.00,-0.0474
1210.00,-0.0474
1209.00,-0.0474
1208.00,-0.0474
1207.00,-0.0474
1206.00,-0.0474
1205.00,-0.0475
1204.00,-0.0475
1203.00,-0.0475
1202.00,-0.0475
1201.00,-0.0475
1200.00,-0.0475
1199.00,-0.0475
1198.00,-0.0475
1197.00,-0.0475
1196.00,-0.0475
1195.00,-0.0476
1194.00,-0.0476
1193.00,-0.0476
1192.00,-0.0476
1191.00,-0.0476
1190.00,-0.0476
1189.00,-0.0476
1188.00,-0.0476
1187.00,-0.0476
1186.00,-0.0476
1185.00,-0.0476
1184.00,-0.0476
1183.00,-0.0476
1182.00,-0.0475
1181.00,-0.0475
1180.00,-0.0475
1179.00,-0.0475
1178.00,-0.0475
1177.00,-0.0475
1176.00,-0.0475
1175.00,-0.0475
1174.00,-0.0475
1173.00,-0.0474
1172.00,-0.0474
1171.00,-0.0474
1170.00,-0.0474
1169.00,-0.0474
1168.00,-0.0474
1167.00,-0.0473
1166.00,-0.0473
1165.00,-0.0473
1164.00,-0.0473
1163.00,-0.0473
1162.00,-0.0473
1161.00,-0.0473
1160.00,-0.0473
1159.00,-0.0473
1158.00,-0.0473
1157.00,-0.0473
1156.00,-0.0473
1155.00,-0.0473
1154.00,-0.0473
1153.00,-0.0473
1152.00,-0.0473
1151.00,-0.0473
1150.00,-0.0473
1149.00,-0.0473
1148.00,-0.0473
1147.00,-0.0473
1146.00,-0.0474
1145.00,-0.0474
1144.00,-0.0474
1143.00,-0.0474
1142.00,-0.0474
1141.00,-0.0474
1140.00,-0.0474
1139.00,-0.0474
1138.00,-0.0474
1137.00,-0.0474
1136.00,-0.0474
1135.00,-0.0475
1134.00,-0.0475
1133.00,-0.0475
1132.00,-0.0475
1131.00,-0.0475
1130.00,-0.0475
1129.00,-0.0475
1128.00,-0.0474
1127.00,-0.0474
1126.00,-0.0474
1125.00,-0.0474
1124.00,-0.0474
1123.00,-0.0474
1122.00,-0.0474
1121.00,-0.0474
1120.00,-0.0474
1119.00,-0.0473
1118.00,-0.0473
1117.00,-0.0473
1116.00,-0.0473
1115.00,-0.0473
1114.00,-0.0473
1113.00,-0.0473
1112.00,-0.0473
1111.00,-0.0473
1110.00,-0.0473
1109.00,-0.0473
1108.00,-0.0472
1107.00,-0.0472
1106.00,-0.0472
1105.00,-0.0472
1104.00,-0.0472
1103.00,-0.0472
1102.00,-0.0472
1101.00,-0.0472
1100.00,-0.0473
1099.00,-0.0473
1098.00,-0.0473
1097.00,-0.0473
1096.00,-0.0473
1095.00,-0.0473
1094.00,-0.0473
1093.00,-0.0473
1092.00,-0.0473
1091.00,-0.0474
1090.00,-0.0474
1089.00,-0.0474
1088.00,-0.0474
1087.00,-0.0474
1086.00,-0.0474
1085.00,-0.0474
1084.00,-0.0474
1083.00,-0.0474
1082.00,-0.0474
1081.00,-0.0474
1080.00,-0.0474
1079.00,-0.0474
1078.00,-0.0474
1077.00,-0.0474
1076.00,-0.0474
1075.00,-0.0474
1074.00,-0.0474
1073.00,-0.0474
1072.00,-0.0473
1071.00,-0.0473
1070.00,-0.0473
1069.00,-0.0473
1068.00,-0.0473
1067.00,-0.0473
1066.00,-0.0473
1065.00,-0.0473
1064.00,-0.0473
1063.00,-0.0473
1062.00,-0.0473
1061.00,-0.0472
1060.00,-0.0472
1059.00,-0.0472
1058.00,-0.0472
1057.00,-0.0472
1056.00,-0.0472
1055.00,-0.0472
1054.00,-0.0472
1053.00,-0.0472
1052.00,-0.0472
1051.00,-0.0472
1050.00,-0.0472
1049.00,-0.0472
1048.00,-0.0472
1047.00,-0.0472
1046.00,-0.0473
1045.00,-0.0473
1044.00,-0.0474
1043.00,-0.0474
1042.00,-0.0474
1041.00,-0.0474
1040.00,-0.0474
1039.00,-0.0475
1038.00,-0.0475
1037.00,-0.0475
1036.00,-0.0475
1035.00,-0.0475
1034.00,-0.0475
1033.00,-0.0475
1032.00,-0.0476
1031.00,-0.0476
1030.00,-0.0476
1029.00,-0.0476
1028.00,-0.0476
1027.00,-0.0476
1026.00,-0.0476
1025.00,-0.0477
1024.00,-0.0477
1023.00,-0.0477
1022.00,-0.0477
1021.00,-0.0477
1020.00,-0.0477
1019.00,-0.0477
1018.00,-0.0477
1017.00,-0.0477
1016.00,-0.0477
1015.00,-0.0477
1014.00,-0.0477
1013.00,-0.0477
1012.00,-0.0477
1011.00,-0.0477
1010.00,-0.0477
1009.00,-0.0478
1008.00,-0.0478
1007.00,-0.0477
1006.00,-0.0477
1005.00,-0.0478
1004.00,-0.0478
1003.00,-0.0478
1002.00,-0.0478
1001.00,-0.0478
1000.00,-0.0478
999.00,-0.0478
998.00,-0.0478
997.00,-0.0479
996.00,-0.0479
995.00,-0.0479
994.00,-0.0479
993.00,-0.0479
992.00,-0.0479
991.00,-0.0479
990.00,-0.0479
989.00,-0.0480
988.00,-0.0480
987.00,-0.0480
986.00,-0.0481
985.00,-0.0481
984.00,-0.0481
983.00,-0.0481
982.00,-0.0481
981.00,-0.0481
980.00,-0.0481
979.00,-0.0481
978.00,-0.0482
977.00,-0.0482
976.00,-0.0482
975.00,-0.0482
974.00,-0.0482
973.00,-0.0482
972.00,-0.0482
971.00,-0.0482
970.00,-0.0482
969.00,-0.0482
968.00,-0.0483
967.00,-0.0483
966.00,-0.0483
965.00,-0.0483
964.00,-0.0482
963.00,-0.0482
962.00,-0.0482
961.00,-0.0482
960.00,-0.0482
959.00,-0.0482
958.00,-0.0482
957.00,-0.0482
956.00,-0.0482
955.00,-0.0482
954.00,-0.0482
953.00,-0.0482
952.00,-0.0482
951.00,-0.0482
950.00,-0.0483
949.00,-0.0483
948.00,-0.0483
947.00,-0.0483
946.00,-0.0483
945.00,-0.0483
944.00,-0.0483
943.00,-0.0483
942.00,-0.0483
941.00,-0.0483
940.00,-0.0483
939.00,-0.0484
938.00,-0.0484
937.00,-0.0484
936.00,-0.0484
935.00,-0.0484
934.00,-0.0484
933.00,-0.0484
932.00,-0.0484
931.00,-0.0484
930.00,-0.0485
929.00,-0.0485
928.00,-0.0485
927.00,-0.0485
926.00,-0.0485
925.00,-0.0485
924.00,-0.0485
923.00,-0.0485
922.00,-0.0485
921.00,-0.0485
920.00,-0.0485
919.00,-0.0485
918.00,-0.0485
917.00,-0.0485
916.00,-0.0485
915.00,-0.0485
914.00,-0.0485
913.00,-0.0485
912.00,-0.0485
911.00,-0.0485
910.00,-0.0484
909.00,-0.0484
908.00,-0.0484
907.00,-0.0484
906.00,-0.0484
905.00,-0.0484
904.00,-0.0484
903.00,-0.0484
902.00,-0.0483
901.00,-0.0483
900.00,-0.0483
899.00,-0.0483
898.00,-0.0483
897.00,-0.0483
896.00,-0.0483
895.00,-0.0483
894.00,-0.0484
893.00,-0.0484
892.00,-0.0484
891.00,-0.0484
890.00,-0.0484
889.00,-0.0484
888.00,-0.0484
887.00,-0.0484
886.00,-0.0484
885.00,-0.0484
884.00,-0.0484
883.00,-0.0484
882.00,-0.0484
881.00,-0.0484
880.00,-0.0484
879.00,-0.0484
878.00,-0.0484
877.00,-0.0484
876.00,-0.0484
875.00,-0.0484
874.00,-0.0484
873.00,-0.0484
872.00,-0.0484
871.00,-0.0484
870.00,-0.0484
869.00,-0.0484
868.00,-0.0484
867.00,-0.0484
866.00,-0.0484
865.00,-0.0484
864.00,-0.0484
863.00,-0.0484
862.00,-0.0484
861.00,-0.0484
860.00,-0.0484
859.00,-0.0484
858.00,-0.0484
857.00,-0.0484
856.00,-0.0484
855.00,-0.0484
854.00,-0.0484
853.00,-0.0484
852.00,-0.0484
851.00,-0.0484
850.00,-0.0484
849.00,-0.0483
848.00,-0.0483
847.00,-0.0483
846.00,-0.0483
845.00,-0.0483
844.00,-0.0483
843.00,-0.0483
842.00,-0.0483
841.00,-0.0483
840.00,-0.0483
839.00,-0.0483
838.00,-0.0483
837.00,-0.0483
836.00,-0.0483
835.00,-0.0483
834.00,-0.0483
833.00,-0.0483
832.00,-0.0483
831.00,-0.0482
830.00,-0.0482
829.00,-0.0482
828.00,-0.0482
827.00,-0.0482
826.00,-0.0482
825.00,-0.0482
824.00,-0.0482
823.00,-0.0482
822.00,-0.0482
821.00,-0.0482
820.00,-0.0482
819.00,-0.0482
818.00,-0.0482
817.00,-0.0483
816.00,-0.0483
815.00,-0.0483
814.00,-0.0483
813.00,-0.0483
812.00,-0.0483
811.00,-0.0483
810.00,-0.0483
809.00,-0.0483
808.00,-0.0483
807.00,-0.0483
806.00,-0.0483
805.00,-0.0483
804.00,-0.0483
803.00,-0.0483
802.00,-0.0483
801.00,-0.0483
800.00,-0.0483
799.00,-0.0483
798.00,-0.0484
797.00,-0.0484
796.00,-0.0484
795.00,-0.0484
794.00,-0.0484
793.00,-0.0484
792.00,-0.0484
791.00,-0.0484
790.00,-0.0484
789.00,-0.0484
788.00,-0.0483
787.00,-0.0483
786.00,-0.0483
785.00,-0.0483
784.00,-0.0483
783.00,-0.0484
782.00,-0.0484
781.00,-0.0484
780.00,-0.0484
779.00,-0.0484
778.00,-0.0484
777.00,-0.0484
776.00,-0.0484
775.00,-0.0484
774.00,-0.0484
773.00,-0.0484
772.00,-0.0484
771.00,-0.0484
770.00,-0.0484
769.00,-0.0484
768.00,-0.0484
767.00,-0.0484
766.00,-0.0484
765.00,-0.0484
764.00,-0.0484
763.00,-0.0484
762.00,-0.0484
761.00,-0.0484
760.00,-0.0484
759.00,-0.0484
758.00,-0.0484
757.00,-0.0484
756.00,-0.0483
755.00,-0.0483
754.00,-0.0483
753.00,-0.0483
752.00,-0.0483
751.00,-0.0483
750.00,-0.0483
749.00,-0.0483
748.00,-0.0483
747.00,-0.0482
746.00,-0.0482
745.00,-0.0482
744.00,-0.0482
743.00,-0.0482
742.00,-0.0482
741.00,-0.0482
740.00,-0.0482
739.00,-0.0482
738.00,-0.0482
737.00,-0.0482
736.00,-0.0482
735.00,-0.0482
734.00,-0.0482
733.00,-0.0482
732.00,-0.0482
731.00,-0.0481
730.00,-0.0481
729.00,-0.0481
728.00,-0.0481
727.00,-0.0482
726.00,-0.0482
725.00,-0.0482
724.00,-0.0482
723.00,-0.0483
722.00,-0.0483
721.00,-0.0483
720.00,-0.0483
719.00,-0.0482
718.00,-0.0482
717.00,-0.0482
716.00,-0.0482
715.00,-0.0483
714.00,-0.0483
713.00,-0.0483
712.00,-0.0482
711.00,-0.0482
710.00,-0.0482
709.00,-0.0483
708.00,-0.0483
707.00,-0.0483
706.00,-0.0482
705.00,-0.0482
704.00,-0.0482
703.00,-0.0482
702.00,-0.0482
701.00,-0.0482
700.00,-0.0482
699.00,-0.0481
698.00,-0.0481
697.00,-0.0481
696.00,-0.0481
695.00,-0.0481
694.00,-0.0481
693.00,-0.0481
692.00,-0.0480
691.00,-0.0480
690.00,-0.0480
689.00,-0.0480
688.00,-0.0480
687.00,-0.0480
686.00,-0.0480
685.00,-0.0479
684.00,-0.0479
683.00,-0.0479
682.00,-0.0479
681.00,-0.0479
680.00,-0.0479
679.00,-0.0479
678.00,-0.0479
677.00,-0.0480
676.00,-0.0480
675.00,-0.0480
674.00,-0.0480
673.00,-0.0480
672.00,-0.0479
671.00,-0.0478
670.00,-0.0477
669.00,-0.0473
668.00,-0.0470
667.00,-0.0469
666.00,-0.0472
665.00,-0.0476
664.00,-0.0478
663.00,-0.0479
662.00,-0.0480
661.00,-0.0480
660.00,-0.0480
659.00,-0.0479
658.00,-0.0479
657.00,-0.0479
656.00,-0.0479
655.00,-0.0479
654.00,-0.0479
653.00,-0.0479
652.00,-0.0479
651.00,-0.0479
650.00,-0.0479
649.00,-0.0479
648.00,-0.0479
647.00,-0.0479
646.00,-0.0478
645.00,-0.0478
644.00,-0.0478
643.00,-0.0478
642.00,-0.0478
641.00,-0.0478
640.00,-0.0477
639.00,-0.0477
638.00,-0.0477
637.00,-0.0477
636.00,-0.0477
635.00,-0.0477
634.00,-0.0477
633.00,-0.0477
632.00,-0.0477
631.00,-0.0477
630.00,-0.0477
629.00,-0.0478
628.00,-0.0478
627.00,-0.0478
626.00,-0.0477
625.00,-0.0477
624.00,-0.0476
623.00,-0.0476
622.00,-0.0477
621.00,-0.0477
620.00,-0.0477
619.00,-0.0478
618.00,-0.0478
617.00,-0.0478
616.00,-0.0478
615.00,-0.0478
614.00,-0.0478
613.00,-0.0478
612.00,-0.0478
611.00,-0.0478
610.00,-0.0478
609.00,-0.0478
608.00,-0.0478
607.00,-0.0478
606.00,-0.0478
605.00,-0.0478
604.00,-0.0478
603.00,-0.0478
602.00,-0.0478
601.00,-0.0478
600.00,-0.0478
599.00,-0.0478
598.00,-0.0478
597.00,-0.0478
596.00,-0.0479
595.00,-0.0478
594.00,-0.0478
593.00,-0.0478
592.00,-0.0478
591.00,-0.0478
590.00,-0.0478
589.00,-0.0477
588.00,-0.0477
587.00,-0.0477
586.00,-0.0476
585.00,-0.0476
584.00,-0.0476
583.00,-0.0477
582.00,-0.0477
581.00,-0.0477
580.00,-0.0477
579.00,-0.0477
578.00,-0.0477
577.00,-0.0477
576.00,-0.0477
575.00,-0.0477
574.00,-0.0477
573.00,-0.0478
572.00,-0.0478
571.00,-0.0478
570.00,-0.0478
569.00,-0.0478
568.00,-0.0478
567.00,-0.0478
566.00,-0.0479
565.00,-0.0479
564.00,-0.0479
563.00,-0.0479
562.00,-0.0479
561.00,-0.0479
560.00,-0.0479
559.00,-0.0479
558.00,-0.0480
557.00,-0.0480
556.00,-0.0480
555.00,-0.0480
554.00,-0.0480
553.00,-0.0480
552.00,-0.0480
551.00,-0.0480
550.00,-0.0481
549.00,-0.0481
548.00,-0.0481
547.00,-0.0480
546.00,-0.0480
545.00,-0.0480
544.00,-0.0480
543.00,-0.0480
542.00,-0.0481
541.00,-0.0481
540.00,-0.0481
539.00,-0.0481
538.00,-0.0481
537.00,-0.0481
536.00,-0.0481
535.00,-0.0482
534.00,-0.0482
533.00,-0.0483
532.00,-0.0483
531.00,-0.0483
530.00,-0.0483
529.00,-0.0482
528.00,-0.0482
527.00,-0.0481
526.00,-0.0481
525.00,-0.0482
524.00,-0.0482
523.00,-0.0483
522.00,-0.0484
521.00,-0.0484
520.00,-0.0484
519.00,-0.0483
518.00,-0.0483
517.00,-0.0484
516.00,-0.0484
515.00,-0.0485
514.00,-0.0485
513.00,-0.0485
512.00,-0.0485
511.00,-0.0485
510.00,-0.0485
509.00,-0.0486
508.00,-0.0486
507.00,-0.0485
506.00,-0.0485
505.00,-0.0485
504.00,-0.0485
503.00,-0.0485
502.00,-0.0484
501.00,-0.0484
500.00,-0.0485
